GCD Test
Bias: 5000.000000
CV_34252_009_PSS_HM_XX_DIODEHALFPSTOP_GRConnected_PCB
Date/Time: 9/14/2021 12:14:50 PM
Sensor Name: DIODEHALFPSTOP
Type: P
Annealing Status: Not Irradiated and Not Annealed
Environment: 20C
Tester: Andrew Kent

Time Delay per Ramp Step (s): 0.500

CV Time Delay per Measurement (s) :0.500

AC Voltage (V): 0.500

Current Number of measurements per voltage: 1.000

IV Time Delay per Measurement (s) :0.000


BiasVoltage	LCR_Cp_freqNaN	LCR_Rp_freqNaN	Temperature	Air_Temp	Humidity	Dewpoint	
   -5.0000	9.761E-11	9.224E+7	   20.0579	   21.9156	    7.0493	  -15.3508	
  -10.0000	7.777E-11	1.356E+8	   20.0579	   21.9304	    7.0582	  -15.3248	
  -15.0000	6.501E-11	1.723E+8	   20.0579	   21.9194	    7.0620	  -15.3264	
  -20.0000	5.790E-11	2.224E+8	   20.0579	   21.9073	    7.0566	  -15.3445	
  -25.0000	5.282E-11	2.403E+8	   20.0579	   21.9073	    7.0566	  -15.3445	
  -30.0000	4.924E-11	3.490E+8	   20.0579	   21.9576	    7.0607	  -15.3005	
  -35.0000	4.611E-11	2.778E+8	   20.0579	   21.9262	    7.0734	  -15.3020	
  -40.0000	4.351E-11	3.148E+8	   20.0579	   21.9395	    7.0595	  -15.3159	
  -45.0000	4.115E-11	4.080E+8	   20.0579	   21.9042	    7.0674	  -15.3284	
  -50.0000	3.898E-11	4.076E+8	   20.0579	   21.9463	    7.0576	  -15.3142	
  -55.0000	3.709E-11	3.704E+8	   20.0605	   21.9521	    7.0753	  -15.2797	
  -60.0000	3.548E-11	5.694E+8	   20.0579	   21.9481	    7.0658	  -15.2989	
  -65.0000	3.419E-11	5.908E+8	   20.0579	   21.9762	    7.0721	  -15.2674	
  -70.0000	3.308E-11	3.688E+8	   20.0579	   21.9174	    7.0617	  -15.3284	
  -75.0000	3.212E-11	2.928E+8	   20.0579	   21.9972	    7.0712	  -15.2536	
  -80.0000	3.014E-11	5.767E+8	   20.0579	   21.9455	    7.0648	  -15.3024	
  -85.0000	2.958E-11	5.033E+8	   20.0579	   21.9457	    7.0750	  -15.2850	
  -90.0000	2.860E-11	7.599E+8	   20.0579	   21.9349	    7.0683	  -15.3042	
  -95.0000	2.815E-11	7.791E+8	   20.0605	   21.9177	    7.0699	  -15.3142	
 -100.0000	2.764E-11	4.921E+8	   20.0605	   21.9466	    7.0658	  -15.2999	
 -105.0000	2.676E-11	2.477E+8	   20.0605	   21.9393	    7.0651	  -15.3064	
 -110.0000	2.619E-11	9.592E+8	   20.0605	   21.9450	    7.0740	  -15.2871	
 -115.0000	2.582E-11	5.474E+8	   20.0579	   21.9801	    7.0743	  -15.2608	
 -120.0000	2.555E-11	7.878E+8	   20.0579	   21.9310	    7.0724	  -15.3001	
 -125.0000	2.522E-11	5.111E+8	   20.0605	   21.9187	    7.0781	  -15.2994	
 -130.0000	2.495E-11	5.332E+8	   20.0579	   21.9257	    7.0750	  -15.2997	
 -135.0000	2.470E-11	5.860E+8	   20.0605	   21.9423	    7.0750	  -15.2875	
 -140.0000	2.444E-11	5.534E+8	   20.0579	   21.9460	    7.0759	  -15.2831	
 -145.0000	2.420E-11	9.300E+8	   20.0579	   21.9413	    7.0762	  -15.2861	
 -150.0000	2.401E-11	9.471E+8	   20.0553	   21.8956	    7.0750	  -15.3218	
 -155.0000	2.385E-11	8.261E+8	   20.0579	   21.9495	    7.0724	  -15.2865	
 -160.0000	2.367E-11	1.213E+9	   20.0579	   21.9341	    7.0819	  -15.2817	
 -165.0000	2.339E-11	5.878E+8	   20.0579	   21.9305	    7.0699	  -15.3048	
 -170.0000	2.327E-11	1.176E+9	   20.0579	   21.8512	    7.0689	  -15.3647	
 -175.0000	2.312E-11	1.011E+9	   20.0579	   21.8512	    7.0689	  -15.3647	
 -180.0000	2.292E-11	6.066E+8	   20.0579	   21.9343	    7.0724	  -15.2977	
 -185.0000	2.275E-11	6.029E+8	   20.0579	   21.9410	    7.0750	  -15.2884	
 -190.0000	2.258E-11	1.212E+9	   20.0579	   21.9198	    7.0693	  -15.3137	
 -195.0000	2.250E-11	1.224E+9	   20.0553	   21.9390	    7.0696	  -15.2991	
 -200.0000	2.237E-11	9.199E+8	   20.0579	   21.9621	    7.0670	  -15.2864	
 -205.0000	2.221E-11	6.188E+8	   20.0579	   21.9248	    7.0708	  -15.3073	
 -210.0000	2.204E-11	1.119E+9	   20.0579	   21.9248	    7.0708	  -15.3073	
 -215.0000	2.196E-11	9.159E+8	   20.0579	   21.8953	    7.0750	  -15.3220	
 -220.0000	2.174E-11	6.702E+8	   20.0579	   21.9207	    7.0750	  -15.3034	
 -225.0000	2.163E-11	9.093E+8	   20.0579	   21.9339	    7.0686	  -15.3044	
 -230.0000	2.161E-11	1.206E+9	   20.0579	   21.9314	    7.0705	  -15.3030	
 -235.0000	2.149E-11	1.262E+9	   20.0553	   21.9314	    7.0629	  -15.3160	
 -240.0000	2.127E-11	9.018E+8	   20.0579	   21.9221	    7.0677	  -15.3147	
 -245.0000	2.122E-11	6.704E+8	   20.0579	   21.9162	    7.0702	  -15.3147	
 -250.0000	2.116E-11	9.475E+8	   20.0579	   21.9162	    7.0702	  -15.3147	
 -255.0000	2.104E-11	9.777E+8	   20.0579	   21.9412	    7.0642	  -15.3066	
 -260.0000	2.095E-11	1.429E+9	   20.0553	   21.9202	    7.0769	  -15.3005	
 -265.0000	2.080E-11	6.679E+8	   20.0553	   21.9491	    7.0737	  -15.2846	
 -270.0000	2.078E-11	6.320E+8	   20.0579	   21.9287	    7.0629	  -15.3179	
 -275.0000	2.072E-11	6.795E+8	   20.0579	   21.9287	    7.0620	  -15.3195	
 -280.0000	2.074E-11	7.473E+8	   20.0579	   21.9073	    7.0664	  -15.3277	
 -285.0000	2.067E-11	6.700E+8	   20.0579	   21.9362	    7.0604	  -15.3167	
 -290.0000	2.064E-11	1.241E+9	   20.0553	   21.9182	    7.0658	  -15.3208	
 -295.0000	2.066E-11	1.119E+9	   20.0553	   21.9182	    7.0696	  -15.3144	
 -300.0000	2.059E-11	7.870E+8	   20.0553	   21.9329	    7.0645	  -15.3121	
 -305.0000	2.064E-11	1.315E+9	   20.0553	   21.9275	    7.0664	  -15.3129	
 -310.0000	2.061E-11	1.259E+9	   20.0553	   21.9275	    7.0553	  -15.3317	
 -315.0000	2.057E-11	6.402E+8	   20.0579	   21.9356	    7.0639	  -15.3113	
 -320.0000	2.060E-11	7.554E+8	   20.0579	   21.9083	    7.0677	  -15.3249	
 -325.0000	2.048E-11	7.319E+8	   20.0579	   21.9112	    7.0595	  -15.3368	
 -330.0000	2.052E-11	1.466E+9	   20.0553	   21.9137	    7.0636	  -15.3279	
 -335.0000	2.057E-11	8.590E+8	   20.0553	   21.9254	    7.0598	  -15.3258	
 -340.0000	2.053E-11	1.499E+9	   20.0553	   21.9359	    7.0655	  -15.3084	
 -345.0000	2.046E-11	6.036E+8	   20.0553	   21.9359	    7.0626	  -15.3132	
 -350.0000	2.054E-11	1.005E+9	   20.0528	   21.9202	    7.0614	  -15.3269	
 -355.0000	2.045E-11	1.042E+9	   20.0553	   21.8959	    7.0633	  -15.3415	
 -360.0000	2.051E-11	1.396E+9	   20.0528	   21.9141	    7.0541	  -15.3438	
 -365.0000	2.050E-11	5.936E+8	   20.0553	   21.8967	    7.0645	  -15.3388	
 -370.0000	2.046E-11	6.179E+8	   20.0528	   21.9081	    7.0557	  -15.3455	
 -375.0000	2.044E-11	6.258E+8	   20.0553	   21.9292	    7.0629	  -15.3176	
 -380.0000	2.043E-11	8.726E+8	   20.0553	   21.9209	    7.0651	  -15.3199	
 -385.0000	2.053E-11	8.370E+8	   20.0528	   21.9209	    7.0614	  -15.3264	
 -390.0000	2.052E-11	9.862E+8	   20.0528	   21.9219	    7.0569	  -15.3332	
 -395.0000	2.041E-11	9.190E+8	   20.0528	   21.9006	    7.0636	  -15.3375	
 -400.0000	2.042E-11	8.774E+8	   20.0528	   21.9172	    7.0588	  -15.3334	
 -410.0000	2.042E-11	8.139E+8	   20.0553	   21.9137	    7.0651	  -15.3252	
 -420.0000	2.049E-11	8.280E+8	   20.0553	   21.9190	    7.0459	  -15.3542	
 -430.0000	2.041E-11	6.635E+8	   20.0528	   21.9101	    7.0512	  -15.3516	
 -440.0000	2.041E-11	8.080E+8	   20.0553	   21.9101	    7.0566	  -15.3424	
 -450.0000	2.042E-11	1.461E+9	   20.0553	   21.9050	    7.0585	  -15.3429	
 -460.0000	2.048E-11	8.878E+8	   20.0553	   21.9265	    7.0591	  -15.3260	
 -470.0000	2.039E-11	6.275E+8	   20.0553	   21.9167	    7.0560	  -15.3386	
 -480.0000	2.052E-11	1.055E+9	   20.0553	   21.9167	    7.0699	  -15.3149	
 -490.0000	2.043E-11	1.666E+9	   20.0553	   21.9040	    7.0712	  -15.3221	
 -500.0000	2.045E-11	1.399E+9	   20.0528	   21.9029	    7.0572	  -15.3466	
 -510.0000	2.046E-11	6.988E+8	   20.0528	   21.9049	    7.0544	  -15.3500	
 -520.0000	2.050E-11	1.068E+9	   20.0528	   21.8944	    7.0525	  -15.3610	
 -530.0000	2.045E-11	1.618E+9	   20.0553	   21.9028	    7.0664	  -15.3311	
 -540.0000	2.050E-11	1.508E+9	   20.0528	   21.9197	    7.0506	  -15.3456	
 -550.0000	2.050E-11	1.086E+9	   20.0553	   21.9174	    7.0497	  -15.3489	
 -560.0000	2.039E-11	1.142E+9	   20.0553	   21.9174	    7.0497	  -15.3489	
 -570.0000	2.048E-11	2.013E+9	   20.0553	   21.9286	    7.0563	  -15.3294	
 -580.0000	2.042E-11	5.985E+8	   20.0528	   21.9292	    7.0544	  -15.3321	
 -590.0000	2.047E-11	7.283E+8	   20.0528	   21.9499	    7.0595	  -15.3083	
 -600.0000	2.046E-11	7.128E+8	   20.0553	   21.9272	    7.0459	  -15.3482	
