GCD Test
Bias: 5000.000000
IV_38875_048_2-S_HM_XX_DIODEHALFPSTOP_GR
Date/Time: 3/9/2022 2:26:26 PM
Sensor Name: 
Type: P
Annealing Status: Unirradiated
Environment: 20C
Tester: Andrew Kent

Time Delay per Ramp Step (s): 0.500

CV Time Delay per Measurement (s) :0.500

AC Voltage (V): 0.500

Current Number of measurements per voltage: 1.000

IV Time Delay per Measurement (s) :0.000


BiasVoltage	Total Current_Avg	Total Current_0	Bias Current_Avg	Bias Current_0	Temperature	Air_Temp	Humidity	Dewpoint	
  -10.0000	1.6900E-10	1.6900E-10	-1.563185E-11	-1.563185E-11	   20.0039	   21.6592	   19.0367	   -2.9205	
  -20.0000	1.4000E-10	1.4000E-10	-1.712098E-11	-1.712098E-11	   20.0064	   21.6578	   18.9775	   -2.9633	
  -30.0000	4.9000E-11	4.9000E-11	-1.767182E-11	-1.767182E-11	   20.0039	   21.6578	   18.8899	   -2.9633	
  -40.0000	1.8000E-11	1.8000E-11	-1.876758E-11	-1.876758E-11	   20.0039	   21.6547	   18.8899	   -3.0279	
  -50.0000	-6.9000E-11	-6.9000E-11	-2.003324E-11	-2.003324E-11	   20.0013	   21.6569	   18.8393	   -3.0621	
  -60.0000	-1.1300E-10	-1.1300E-10	-2.056677E-11	-2.056677E-11	   19.9987	   21.6556	   18.8178	   -3.0784	
  -70.0000	-7.6000E-11	-7.6000E-11	-2.101209E-11	-2.101209E-11	   19.9987	   21.6539	   18.7925	   -3.0979	
  -80.0000	-2.0200E-10	-2.0200E-10	-2.164012E-11	-2.164012E-11	   19.9961	   21.6583	   18.7739	   -3.1076	
  -90.0000	-2.5100E-10	-2.5100E-10	-2.221316E-11	-2.221316E-11	   19.9936	   21.6542	   18.7517	   -3.1268	
 -100.0000	-1.8900E-10	-1.8900E-10	-2.307262E-11	-2.307262E-11	   19.9936	   21.6553	   18.7429	   -3.1322	
 -110.0000	-1.8600E-10	-1.8600E-10	-2.305735E-11	-2.305735E-11	   19.9936	   21.6543	   18.7255	   -3.1455	
 -120.0000	-2.4800E-10	-2.4800E-10	-2.343524E-11	-2.343524E-11	   19.9961	   21.6583	   18.7113	   -3.1524	
 -130.0000	-2.2800E-10	-2.2800E-10	-2.402518E-11	-2.402518E-11	   19.9961	   21.6559	   18.7018	   -3.1611	
 -140.0000	-3.0000E-10	-3.0000E-10	-2.427737E-11	-2.427737E-11	   19.9987	   21.6614	   18.6996	   -3.1582	
 -150.0000	-3.2300E-10	-3.2300E-10	-2.441264E-11	-2.441264E-11	   20.0013	   21.6597	   18.6973	   -3.1612	
 -160.0000	-4.1700E-10	-4.1700E-10	-2.566690E-11	-2.566690E-11	   20.0039	   21.6520	   18.6803	   -3.1797	
 -170.0000	-4.3600E-10	-4.3600E-10	-2.607820E-11	-2.607820E-11	   20.0039	   21.6548	   18.6762	   -3.1803	
 -180.0000	-3.9000E-10	-3.9000E-10	-2.729658E-11	-2.729658E-11	   20.0064	   21.6570	   18.6670	   -3.1851	
 -190.0000	-4.6700E-10	-4.6700E-10	-2.901938E-11	-2.901938E-11	   20.0064	   21.6582	   18.6521	   -3.1948	
 -200.0000	-3.9200E-10	-3.9200E-10	-3.112739E-11	-3.112739E-11	   20.0039	   21.6582	   18.6607	   -3.1948	
 -210.0000	-4.2200E-10	-4.2200E-10	-3.395103E-11	-3.395103E-11	   20.0039	   21.6548	   18.6607	   -3.1915	
 -220.0000	-4.3200E-10	-4.3200E-10	-3.691544E-11	-3.691544E-11	   20.0039	   21.6592	   18.6537	   -3.1928	
 -230.0000	-5.2800E-10	-5.2800E-10	-3.946794E-11	-3.946794E-11	   19.9987	   21.6592	   18.6686	   -3.1928	
 -240.0000	-6.0100E-10	-6.0100E-10	-4.226817E-11	-4.226817E-11	   19.9987	   21.6519	   18.6686	   -3.1881	
 -250.0000	-6.1600E-10	-6.1600E-10	-4.398179E-11	-4.398179E-11	   19.9961	   21.6541	   18.6569	   -3.1948	
 -260.0000	-5.1700E-10	-5.1700E-10	-4.530369E-11	-4.530369E-11	   19.9936	   21.6541	   18.6458	   -3.1948	
 -270.0000	-5.2000E-10	-5.2000E-10	-4.646892E-11	-4.646892E-11	   19.9936	   21.6547	   18.6480	   -3.2022	
 -280.0000	-5.8300E-10	-5.8300E-10	-4.698512E-11	-4.698512E-11	   19.9936	   21.6506	   18.6480	   -3.2040	
 -290.0000	-6.8300E-10	-6.8300E-10	-4.763476E-11	-4.763476E-11	   19.9936	   21.6579	   18.6480	   -3.1980	
 -300.0000	-5.8800E-10	-5.8800E-10	-4.889168E-11	-4.889168E-11	   19.9936	   21.6521	   18.6461	   -3.2042	
 -310.0000	-6.6600E-10	-6.6600E-10	-4.927300E-11	-4.927300E-11	   19.9961	   21.6513	   18.6436	   -3.2066	
 -320.0000	-7.2400E-10	-7.2400E-10	-4.992548E-11	-4.992548E-11	   19.9987	   21.6535	   18.6464	   -3.2028	
 -330.0000	-7.3700E-10	-7.3700E-10	-5.033108E-11	-5.033108E-11	   20.0013	   21.6534	   18.6572	   -3.1951	
 -340.0000	-6.8800E-10	-6.8800E-10	-5.102352E-11	-5.102352E-11	   20.0064	   21.6539	   18.6550	   -3.1963	
 -350.0000	-7.5600E-10	-7.5600E-10	-5.174791E-11	-5.174791E-11	   20.0064	   21.6525	   18.6673	   -3.1886	
 -360.0000	-7.8300E-10	-7.8300E-10	-5.201231E-11	-5.201231E-11	   20.0090	   21.6525	   18.6641	   -3.1908	
 -370.0000	-7.9200E-10	-7.9200E-10	-5.278905E-11	-5.278905E-11	   20.0090	   21.6536	   18.6660	   -3.1886	
 -380.0000	-7.9600E-10	-7.9600E-10	-5.267560E-11	-5.267560E-11	   20.0090	   21.6527	   18.6616	   -3.1925	
 -390.0000	-8.1400E-10	-8.1400E-10	-5.303048E-11	-5.303048E-11	   20.0039	   21.6527	   18.6720	   -3.1925	
 -400.0000	-7.0700E-10	-7.0700E-10	-5.356889E-11	-5.356889E-11	   20.0013	   21.6501	   18.6720	   -3.1872	
 -420.0000	-8.3700E-10	-8.3700E-10	-5.455076E-11	-5.455076E-11	   20.0013	   21.6523	   18.6676	   -3.1869	
 -440.0000	-9.4300E-10	-9.4300E-10	-5.481661E-11	-5.481661E-11	   19.9961	   21.6523	   18.6727	   -3.1885	
 -460.0000	-9.7700E-10	-9.7700E-10	-5.594294E-11	-5.594294E-11	   19.9961	   21.6489	   18.6727	   -3.1877	
 -480.0000	-1.1410E-9	-1.1410E-9	-5.651271E-11	-5.651271E-11	   19.9961	   21.6515	   18.6803	   -3.1801	
 -500.0000	-1.1570E-9	-1.1570E-9	-5.726807E-11	-5.726807E-11	   19.9936	   21.6481	   18.6853	   -3.1793	
 -520.0000	-1.3610E-9	-1.3610E-9	-5.799165E-11	-5.799165E-11	   19.9936	   21.6473	   18.6898	   -3.1768	
 -540.0000	-1.3590E-9	-1.3590E-9	-5.871930E-11	-5.871930E-11	   19.9961	   21.6473	   18.6939	   -3.1768	
 -560.0000	-1.5060E-9	-1.5060E-9	-5.943537E-11	-5.943537E-11	   19.9961	   21.6494	   18.6939	   -3.1721	
 -580.0000	-1.4170E-9	-1.4170E-9	-6.024978E-11	-6.024978E-11	   19.9987	   21.6538	   18.6907	   -3.1707	
 -600.0000	-1.4490E-9	-1.4490E-9	-6.071670E-11	-6.071670E-11	   19.9987	   21.6538	   18.6907	   -3.1707	
 -620.0000	-1.4700E-9	-1.4700E-9	-6.145146E-11	-6.145146E-11	   20.0013	   21.6538	   18.6999	   -3.1642	
 -640.0000	-1.5130E-9	-1.5130E-9	-6.187478E-11	-6.187478E-11	   20.0039	   21.6478	   18.7027	   -3.1670	
 -660.0000	-1.6550E-9	-1.6550E-9	-6.212129E-11	-6.212129E-11	   20.0064	   21.6447	   18.7090	   -3.1650	
 -680.0000	-1.5910E-9	-1.5910E-9	-6.284304E-11	-6.284304E-11	   20.0064	   21.6447	   18.7090	   -3.1650	
 -700.0000	-1.5720E-9	-1.5720E-9	-6.336900E-11	-6.336900E-11	   20.0090	   21.6521	   18.7154	   -3.1545	
 -720.0000	-1.6120E-9	-1.6120E-9	-6.360207E-11	-6.360207E-11	   20.0064	   21.6516	   18.7198	   -3.1517	
 -740.0000	-1.6620E-9	-1.6620E-9	-6.365788E-11	-6.365788E-11	   20.0064	   21.6516	   18.7198	   -3.1517	
 -760.0000	-1.7600E-9	-1.7600E-9	-6.462716E-11	-6.462716E-11	   20.0064	   21.6470	   18.7201	   -3.1553	
 -780.0000	-1.7680E-9	-1.7680E-9	-6.459860E-11	-6.459860E-11	   20.0039	   21.6509	   18.7242	   -3.1491	
 -800.0000	-1.7830E-9	-1.7830E-9	-6.526495E-11	-6.526495E-11	   20.0039	   21.6509	   18.7242	   -3.1491	
 -820.0000	-1.8070E-9	-1.8070E-9	-6.588097E-11	-6.588097E-11	   20.0013	   21.6495	   18.7239	   -3.1505	
 -840.0000	-1.9620E-9	-1.9620E-9	-6.638233E-11	-6.638233E-11	   19.9987	   21.6495	   18.7299	   -3.1462	
 -860.0000	-1.9070E-9	-1.9070E-9	-6.630228E-11	-6.630228E-11	   19.9961	   21.6495	   18.7296	   -3.1462	
 -880.0000	-1.9110E-9	-1.9110E-9	-6.709937E-11	-6.709937E-11	   19.9961	   21.6453	   18.7296	   -3.1498	
 -900.0000	-1.9500E-9	-1.9500E-9	-6.764635E-11	-6.764635E-11	   19.9961	   21.6495	   18.7283	   -3.1474	
 -920.0000	-1.9800E-9	-1.9800E-9	-6.745118E-11	-6.745118E-11	   19.9936	   21.6467	   18.7258	   -3.1514	
 -940.0000	-2.0840E-9	-2.0840E-9	-6.833917E-11	-6.833917E-11	   19.9936	   21.6467	   18.7261	   -3.1514	
 -960.0000	-2.0940E-9	-2.0940E-9	-6.881892E-11	-6.881892E-11	   19.9936	   21.6453	   18.7261	   -3.1523	
 -980.0000	-2.2230E-9	-2.2230E-9	-6.896685E-11	-6.896685E-11	   19.9936	   21.6475	   18.7366	   -3.1431	
-1000.0000	-2.2230E-9	-2.2230E-9	-6.936835E-11	-6.936835E-11	   19.9961	   21.6495	   18.7302	   -3.1460	
