GCD Test
Bias: 5000.000000
IV_38695_044_2-S_HM_XX_DIODEHALFPSTOP_GR
Date/Time: 2/11/2022 11:26:05 AM
Sensor Name: DIODEHALFPSTOP
Type: 
Annealing Status: Not Irradiated
Environment: 
Tester: Andrew Kent

Time Delay per Ramp Step (s): 0.500

CV Time Delay per Measurement (s) :0.500

AC Voltage (V): 0.500

Current Number of measurements per voltage: 1.000

IV Time Delay per Measurement (s) :0.000


BiasVoltage	Total Current_Avg	Total Current_0	Bias Current_Avg	Bias Current_0	Temperature	Air_Temp	Humidity	Dewpoint	
  -10.0000	2.5800E-10	2.5800E-10	-1.977331E-11	-1.977331E-11	   20.0064	   21.5432	   21.1205	   -1.6106	
  -20.0000	1.1300E-10	1.1300E-10	-2.080919E-11	-2.080919E-11	   20.0064	   21.5528	   21.1205	   -1.6065	
  -30.0000	7.0000E-11	7.0000E-11	-2.172855E-11	-2.172855E-11	   20.0142	   21.5490	   21.1170	   -1.6119	
  -40.0000	-1.1100E-10	-1.1100E-10	-2.299789E-11	-2.299789E-11	   20.0219	   21.5648	   21.1157	   -1.5995	
  -50.0000	-1.3500E-10	-1.3500E-10	-2.390502E-11	-2.390502E-11	   20.0245	   21.5599	   21.1170	   -1.6029	
  -60.0000	-1.2200E-10	-1.2200E-10	-2.500996E-11	-2.500996E-11	   20.0245	   21.5623	   21.0993	   -1.6122	
  -70.0000	-2.6700E-10	-2.6700E-10	-2.547423E-11	-2.547423E-11	   20.0219	   21.5763	   21.1015	   -1.5992	
  -80.0000	-3.0000E-10	-3.0000E-10	-2.581912E-11	-2.581912E-11	   20.0142	   21.6035	   21.1012	   -1.5768	
  -90.0000	-2.3100E-10	-2.3100E-10	-2.698415E-11	-2.698415E-11	   20.0064	   21.5752	   21.1088	   -1.5954	
 -100.0000	-3.6500E-10	-3.6500E-10	-2.716180E-11	-2.716180E-11	   19.9910	   21.5873	   21.1018	   -1.5899	
 -110.0000	-2.6800E-10	-2.6800E-10	-2.812210E-11	-2.812210E-11	   19.9833	   21.5873	   21.0927	   -1.5899	
 -120.0000	-3.5300E-10	-3.5300E-10	-2.816019E-11	-2.816019E-11	   19.9755	   21.5873	   21.0949	   -1.5958	
 -130.0000	-2.9400E-10	-2.9400E-10	-2.884181E-11	-2.884181E-11	   19.9730	   21.5823	   21.0971	   -1.5984	
 -140.0000	-3.4000E-10	-3.4000E-10	-2.899399E-11	-2.899399E-11	   19.9730	   21.5908	   21.0977	   -1.5900	
 -150.0000	-3.3800E-10	-3.3800E-10	-3.044729E-11	-3.044729E-11	   19.9730	   21.5682	   21.0977	   -1.6083	
 -160.0000	-4.8400E-10	-4.8400E-10	-3.193766E-11	-3.193766E-11	   19.9807	   21.6006	   21.0942	   -1.5837	
 -170.0000	-5.0200E-10	-5.0200E-10	-3.323246E-11	-3.323246E-11	   19.9910	   21.5637	   21.0952	   -1.6137	
 -180.0000	-5.3300E-10	-5.3300E-10	-3.655748E-11	-3.655748E-11	   19.9987	   21.6028	   21.0993	   -1.5786	
 -190.0000	-4.8000E-10	-4.8000E-10	-3.985764E-11	-3.985764E-11	   20.0116	   21.6163	   21.0930	   -1.5715	
 -200.0000	-5.7200E-10	-5.7200E-10	-4.438395E-11	-4.438395E-11	   20.0193	   21.5977	   21.0939	   -1.5863	
 -210.0000	-4.8800E-10	-4.8800E-10	-4.922582E-11	-4.922582E-11	   20.0245	   21.6108	   21.1012	   -1.5708	
 -220.0000	-6.3100E-10	-6.3100E-10	-5.259278E-11	-5.259278E-11	   20.0296	   21.5931	   21.0993	   -1.5867	
 -230.0000	-6.3500E-10	-6.3500E-10	-5.498254E-11	-5.498254E-11	   20.0270	   21.5960	   21.0800	   -1.5966	
 -240.0000	-6.7300E-10	-6.7300E-10	-5.709384E-11	-5.709384E-11	   20.0245	   21.5980	   21.0914	   -1.5877	
 -250.0000	-5.9800E-10	-5.9800E-10	-5.835848E-11	-5.835848E-11	   20.0167	   21.5807	   21.0806	   -1.6089	
 -260.0000	-6.5500E-10	-6.5500E-10	-5.947117E-11	-5.947117E-11	   20.0064	   21.5987	   21.0860	   -1.5906	
 -270.0000	-6.4600E-10	-6.4600E-10	-6.014809E-11	-6.014809E-11	   19.9961	   21.5875	   21.0857	   -1.6001	
 -280.0000	-6.4400E-10	-6.4400E-10	-6.136874E-11	-6.136874E-11	   19.9884	   21.5986	   21.0822	   -1.5931	
 -290.0000	-6.4300E-10	-6.4300E-10	-6.205179E-11	-6.205179E-11	   19.9781	   21.6220	   21.0750	   -1.5784	
 -300.0000	-6.6100E-10	-6.6100E-10	-6.334234E-11	-6.334234E-11	   19.9755	   21.6032	   21.0743	   -1.5943	
 -310.0000	-8.0300E-10	-8.0300E-10	-6.391822E-11	-6.391822E-11	   19.9730	   21.6030	   21.0750	   -1.5941	
 -320.0000	-8.2500E-10	-8.2500E-10	-6.508041E-11	-6.508041E-11	   19.9755	   21.5798	   21.0753	   -1.6131	
 -330.0000	-7.4100E-10	-7.4100E-10	-6.568807E-11	-6.568807E-11	   19.9807	   21.6109	   21.0765	   -1.5865	
 -340.0000	-8.3200E-10	-8.3200E-10	-6.622791E-11	-6.622791E-11	   19.9884	   21.6006	   21.0740	   -1.5967	
 -350.0000	-8.6000E-10	-8.6000E-10	-6.665735E-11	-6.665735E-11	   20.0064	   21.6079	   21.0734	   -1.5911	
 -360.0000	-8.0200E-10	-8.0200E-10	-6.734651E-11	-6.734651E-11	   20.0064	   21.6079	   21.0734	   -1.5911	
 -370.0000	-8.1200E-10	-8.1200E-10	-6.821777E-11	-6.821777E-11	   20.0219	   21.5957	   21.0737	   -1.6010	
 -380.0000	-8.1000E-10	-8.1000E-10	-6.843758E-11	-6.843758E-11	   20.0322	   21.5957	   21.0746	   -1.6010	
 -390.0000	-7.7900E-10	-7.7900E-10	-6.874314E-11	-6.874314E-11	   20.0347	   21.5957	   21.0810	   -1.6004	
 -400.0000	-8.2300E-10	-8.2300E-10	-6.939077E-11	-6.939077E-11	   20.0322	   21.5994	   21.0734	   -1.5932	
 -420.0000	-1.0590E-9	-1.0590E-9	-7.102984E-11	-7.102984E-11	   20.0322	   21.6064	   21.0734	   -1.5923	
 -440.0000	-1.1430E-9	-1.1430E-9	-7.163323E-11	-7.163323E-11	   20.0245	   21.6006	   21.0727	   -1.5975	
 -460.0000	-1.1460E-9	-1.1460E-9	-7.261022E-11	-7.261022E-11	   20.0245	   21.6006	   21.0727	   -1.5975	
 -480.0000	-1.1760E-9	-1.1760E-9	-7.339288E-11	-7.339288E-11	   20.0090	   21.6006	   21.0835	   -1.5906	
 -500.0000	-1.3280E-9	-1.3280E-9	-7.406984E-11	-7.406984E-11	   19.9987	   21.5948	   21.0670	   -1.6060	
 -520.0000	-1.3430E-9	-1.3430E-9	-7.482256E-11	-7.482256E-11	   19.9884	   21.5909	   21.0756	   -1.6038	
 -540.0000	-1.3580E-9	-1.3580E-9	-7.581139E-11	-7.581139E-11	   19.9807	   21.5909	   21.0791	   -1.6038	
 -560.0000	-1.4430E-9	-1.4430E-9	-7.651257E-11	-7.651257E-11	   19.9807	   21.5880	   21.0791	   -1.6040	
 -580.0000	-1.4500E-9	-1.4500E-9	-7.665964E-11	-7.665964E-11	   19.9781	   21.6247	   21.0775	   -1.5745	
 -600.0000	-1.5440E-9	-1.5440E-9	-7.800781E-11	-7.800781E-11	   19.9781	   21.5939	   21.0778	   -1.5999	
 -620.0000	-1.6050E-9	-1.6050E-9	-7.873894E-11	-7.873894E-11	   19.9858	   21.5939	   21.0765	   -1.5999	
 -640.0000	-1.6640E-9	-1.6640E-9	-8.009545E-11	-8.009545E-11	   19.9858	   21.6017	   21.0765	   -1.5942	
 -660.0000	-1.6760E-9	-1.6760E-9	-8.020341E-11	-8.020341E-11	   19.9936	   21.5911	   21.0759	   -1.6034	
 -680.0000	-1.8460E-9	-1.8460E-9	-8.097429E-11	-8.097429E-11	   20.0039	   21.5887	   21.0816	   -1.6017	
 -700.0000	-1.6720E-9	-1.6720E-9	-8.137357E-11	-8.137357E-11	   20.0167	   21.5887	   21.0813	   -1.6017	
 -720.0000	-1.7450E-9	-1.7450E-9	-8.228108E-11	-8.228108E-11	   20.0167	   21.5887	   21.0813	   -1.6019	
 -740.0000	-1.7750E-9	-1.7750E-9	-8.288796E-11	-8.288796E-11	   20.0219	   21.5809	   21.0838	   -1.6068	
 -760.0000	-1.8980E-9	-1.8980E-9	-8.324794E-11	-8.324794E-11	   20.0270	   21.5920	   21.0740	   -1.6039	
 -780.0000	-1.8320E-9	-1.8320E-9	-8.359813E-11	-8.359813E-11	   20.0296	   21.6001	   21.0781	   -1.5945	
 -800.0000	-1.8340E-9	-1.8340E-9	-8.403446E-11	-8.403446E-11	   20.0245	   21.6001	   21.0743	   -1.5945	
 -820.0000	-1.9080E-9	-1.9080E-9	-8.447140E-11	-8.447140E-11	   20.0245	   21.6121	   21.0743	   -1.5870	
 -840.0000	-1.9540E-9	-1.9540E-9	-8.504407E-11	-8.504407E-11	   20.0167	   21.5896	   21.0791	   -1.6026	
 -860.0000	-1.9970E-9	-1.9970E-9	-8.562360E-11	-8.562360E-11	   20.0090	   21.6208	   21.0718	   -1.5814	
 -880.0000	-2.0390E-9	-2.0390E-9	-8.578249E-11	-8.578249E-11	   19.9961	   21.5860	   21.0787	   -1.6058	
 -900.0000	-2.0830E-9	-2.0830E-9	-8.636899E-11	-8.636899E-11	   19.9961	   21.5860	   21.0787	   -1.6058	
 -920.0000	-2.1300E-9	-2.1300E-9	-8.694125E-11	-8.694125E-11	   19.9884	   21.6139	   21.0778	   -1.5833	
 -940.0000	-2.1830E-9	-2.1830E-9	-8.730362E-11	-8.730362E-11	   19.9807	   21.6163	   21.0860	   -1.5760	
 -960.0000	-2.2110E-9	-2.2110E-9	-8.779885E-11	-8.779885E-11	   19.9755	   21.6163	   21.0693	   -1.5760	
 -980.0000	-2.3110E-9	-2.3110E-9	-8.893188E-11	-8.893188E-11	   19.9755	   21.5982	   21.0693	   -1.6017	
-1000.0000	-2.3740E-9	-2.3740E-9	-8.911731E-11	-8.911731E-11	   19.9755	   21.5919	   21.0765	   -1.6023	
