GCD Test
Bias: 5000.000000
IV_37895_001_PSS_HM_XX_DIODEHALF
Date/Time: 12/17/2021 9:52:01 AM
Sensor Name: DIODEHALF
Type: P
Annealing Status: Unirradiated 
Environment: 20C
Tester: Andrew Kent

Time Delay per Ramp Step (s): 0.500

CV Time Delay per Measurement (s) :0.500

AC Voltage (V): 0.500

Current Number of measurements per voltage: 1.000

IV Time Delay per Measurement (s) :0.000


BiasVoltage	Total Current_Avg	Total Current_0	Bias Current_Avg	Bias Current_0	Temperature	Air_Temp	Humidity	Dewpoint	
   -5.0000	9.2000E-11	9.2000E-11	-7.223668E-11	-7.223668E-11	   20.1480	   21.6729	   22.7897	   -0.4693	
  -10.0000	-6.0000E-11	-6.0000E-11	-7.405467E-11	-7.405467E-11	   20.1480	   21.6690	   22.8289	   -0.4490	
  -15.0000	-3.2000E-11	-3.2000E-11	-7.700792E-11	-7.700792E-11	   20.1480	   21.6706	   22.8596	   -0.4292	
  -20.0000	2.1000E-11	2.1000E-11	-8.121365E-11	-8.121365E-11	   20.1480	   21.6651	   22.8824	   -0.4202	
  -25.0000	-4.5000E-11	-4.5000E-11	-8.983209E-11	-8.983209E-11	   20.1429	   21.6681	   22.8994	   -0.4074	
  -30.0000	-1.2200E-10	-1.2200E-10	-9.575642E-11	-9.575642E-11	   20.1454	   21.6694	   22.9086	   -0.4009	
  -35.0000	-1.8700E-10	-1.8700E-10	-1.007214E-10	-1.007214E-10	   20.1454	   21.6694	   22.9146	   -0.4009	
  -40.0000	-2.1400E-10	-2.1400E-10	-1.045851E-10	-1.045851E-10	   20.1454	   21.6654	   22.9156	   -0.4006	
  -45.0000	-2.3700E-10	-2.3700E-10	-1.072385E-10	-1.072385E-10	   20.1454	   21.6673	   22.9342	   -0.3985	
  -50.0000	-2.3300E-10	-2.3300E-10	-1.100594E-10	-1.100594E-10	   20.1429	   21.6690	   22.9317	   -0.3858	
  -55.0000	-1.9600E-10	-1.9600E-10	-1.120193E-10	-1.120193E-10	   20.1429	   21.6677	   22.9431	   -0.3885	
  -60.0000	-2.7200E-10	-2.7200E-10	-1.135386E-10	-1.135386E-10	   20.1403	   21.6655	   22.9364	   -0.3835	
  -65.0000	-2.9600E-10	-2.9600E-10	-1.144001E-10	-1.144001E-10	   20.1429	   21.6611	   22.9447	   -0.3912	
  -70.0000	-2.7200E-10	-2.7200E-10	-1.152028E-10	-1.152028E-10	   20.1429	   21.6642	   22.9466	   -0.3836	
  -75.0000	-3.1000E-10	-3.1000E-10	-1.158036E-10	-1.158036E-10	   20.1429	   21.6679	   22.9466	   -0.3794	
  -80.0000	-2.0000E-10	-2.0000E-10	-1.163132E-10	-1.163132E-10	   20.1403	   21.6692	   22.9443	   -0.3797	
  -85.0000	-3.3400E-10	-3.3400E-10	-1.177276E-10	-1.177276E-10	   20.1403	   21.6659	   22.9326	   -0.3894	
  -90.0000	-3.5100E-10	-3.5100E-10	-1.179939E-10	-1.179939E-10	   20.1403	   21.6643	   22.9383	   -0.3874	
  -95.0000	-3.7100E-10	-3.7100E-10	-1.183991E-10	-1.183991E-10	   20.1403	   21.6653	   22.9475	   -0.3810	
 -100.0000	-3.3500E-10	-3.3500E-10	-1.191092E-10	-1.191092E-10	   20.1403	   21.6609	   22.9529	   -0.3815	
 -105.0000	-3.2700E-10	-3.2700E-10	-1.193616E-10	-1.193616E-10	   20.1403	   21.6629	   22.9510	   -0.3809	
 -110.0000	-3.8600E-10	-3.8600E-10	-1.197111E-10	-1.197111E-10	   20.1403	   21.6619	   22.9513	   -0.3817	
 -115.0000	-2.7700E-10	-2.7700E-10	-1.202310E-10	-1.202310E-10	   20.1377	   21.6621	   22.9481	   -0.3834	
 -120.0000	-2.6100E-10	-2.6100E-10	-1.204042E-10	-1.204042E-10	   20.1377	   21.6641	   22.9589	   -0.3752	
 -125.0000	-2.9000E-10	-2.9000E-10	-1.211518E-10	-1.211518E-10	   20.1377	   21.6606	   22.9665	   -0.3737	
 -130.0000	-4.1300E-10	-4.1300E-10	-1.215725E-10	-1.215725E-10	   20.1377	   21.6606	   22.9633	   -0.3737	
 -135.0000	-3.2400E-10	-3.2400E-10	-1.217169E-10	-1.217169E-10	   20.1377	   21.6606	   22.9791	   -0.3756	
 -140.0000	-4.2200E-10	-4.2200E-10	-1.220174E-10	-1.220174E-10	   20.1351	   21.6568	   22.9836	   -0.3693	
 -145.0000	-3.4000E-10	-3.4000E-10	-1.224524E-10	-1.224524E-10	   20.1351	   21.6522	   22.9870	   -0.3705	
 -150.0000	-3.9400E-10	-3.9400E-10	-1.229160E-10	-1.229160E-10	   20.1351	   21.6505	   22.9896	   -0.3698	
 -155.0000	-4.3800E-10	-4.3800E-10	-1.232008E-10	-1.232008E-10	   20.1351	   21.6582	   22.9886	   -0.3619	
 -160.0000	-3.4600E-10	-3.4600E-10	-1.238535E-10	-1.238535E-10	   20.1351	   21.6526	   22.9953	   -0.3672	
 -165.0000	-4.3900E-10	-4.3900E-10	-1.246643E-10	-1.246643E-10	   20.1351	   21.6521	   22.9953	   -0.3636	
 -170.0000	-4.2600E-10	-4.2600E-10	-1.251066E-10	-1.251066E-10	   20.1351	   21.6535	   22.9994	   -0.3599	
 -175.0000	-3.6200E-10	-3.6200E-10	-1.256260E-10	-1.256260E-10	   20.1326	   21.6518	   22.9984	   -0.3620	
 -180.0000	-3.7500E-10	-3.7500E-10	-1.266627E-10	-1.266627E-10	   20.1326	   21.6572	   23.0079	   -0.3518	
 -185.0000	-4.6900E-10	-4.6900E-10	-1.273610E-10	-1.273610E-10	   20.1326	   21.6502	   23.0057	   -0.3590	
 -190.0000	-4.8800E-10	-4.8800E-10	-1.293517E-10	-1.293517E-10	   20.1326	   21.6502	   23.0104	   -0.3590	
 -195.0000	-3.8800E-10	-3.8800E-10	-1.305097E-10	-1.305097E-10	   20.1326	   21.6486	   23.0047	   -0.3575	
 -200.0000	-3.9500E-10	-3.9500E-10	-1.324036E-10	-1.324036E-10	   20.1326	   21.6449	   23.0171	   -0.3639	
 -205.0000	-4.4300E-10	-4.4300E-10	-1.336086E-10	-1.336086E-10	   20.1300	   21.6449	   23.0158	   -0.3566	
 -210.0000	-4.2200E-10	-4.2200E-10	-1.354131E-10	-1.354131E-10	   20.1300	   21.6484	   23.0063	   -0.3544	
 -215.0000	-4.5000E-10	-4.5000E-10	-1.377244E-10	-1.377244E-10	   20.1300	   21.6452	   23.0063	   -0.3627	
 -220.0000	-4.7900E-10	-4.7900E-10	-1.397270E-10	-1.397270E-10	   20.1300	   21.6482	   23.0168	   -0.3540	
 -225.0000	-4.2400E-10	-4.2400E-10	-1.414523E-10	-1.414523E-10	   20.1300	   21.6517	   23.0250	   -0.3462	
 -230.0000	-5.7800E-10	-5.7800E-10	-1.431548E-10	-1.431548E-10	   20.1300	   21.6468	   23.0187	   -0.3541	
 -235.0000	-5.1900E-10	-5.1900E-10	-1.446641E-10	-1.446641E-10	   20.1300	   21.6451	   23.0202	   -0.3546	
 -240.0000	-4.4600E-10	-4.4600E-10	-1.458672E-10	-1.458672E-10	   20.1274	   21.6445	   23.0164	   -0.3573	
 -245.0000	-5.9300E-10	-5.9300E-10	-1.469958E-10	-1.469958E-10	   20.1274	   21.6418	   23.0234	   -0.3555	
 -250.0000	-5.7600E-10	-5.7600E-10	-1.487298E-10	-1.487298E-10	   20.1274	   21.6454	   23.0152	   -0.3573	
 -255.0000	-5.9700E-10	-5.9700E-10	-1.498422E-10	-1.498422E-10	   20.1274	   21.6452	   23.0212	   -0.3540	
 -260.0000	-4.9800E-10	-4.9800E-10	-1.508503E-10	-1.508503E-10	   20.1274	   21.6444	   23.0177	   -0.3566	
 -265.0000	-4.8700E-10	-4.8700E-10	-1.519185E-10	-1.519185E-10	   20.1248	   21.6413	   23.0225	   -0.3564	
 -270.0000	-5.0500E-10	-5.0500E-10	-1.527265E-10	-1.527265E-10	   20.1274	   21.6397	   23.0218	   -0.3581	
 -275.0000	-5.7100E-10	-5.7100E-10	-1.534967E-10	-1.534967E-10	   20.1248	   21.6448	   23.0193	   -0.3554	
 -280.0000	-5.0300E-10	-5.0300E-10	-1.544765E-10	-1.544765E-10	   20.1248	   21.6440	   23.0133	   -0.3597	
 -285.0000	-5.5900E-10	-5.5900E-10	-1.552166E-10	-1.552166E-10	   20.1274	   21.6396	   23.0149	   -0.3624	
 -290.0000	-5.2000E-10	-5.2000E-10	-1.561344E-10	-1.561344E-10	   20.1248	   21.6396	   23.0149	   -0.3624	
 -295.0000	-6.5100E-10	-6.5100E-10	-1.567834E-10	-1.567834E-10	   20.1248	   21.6416	   23.0139	   -0.3607	
 -300.0000	-5.8000E-10	-5.8000E-10	-1.571316E-10	-1.571316E-10	   20.1248	   21.6416	   23.0079	   -0.3613	
 -305.0000	-6.2300E-10	-6.2300E-10	-1.580117E-10	-1.580117E-10	   20.1248	   21.6425	   23.0161	   -0.3641	
 -310.0000	-5.4600E-10	-5.4600E-10	-1.586049E-10	-1.586049E-10	   20.1248	   21.6419	   23.0123	   -0.3597	
 -315.0000	-6.7400E-10	-6.7400E-10	-1.592800E-10	-1.592800E-10	   20.1248	   21.6404	   23.0215	   -0.3632	
 -320.0000	-6.7400E-10	-6.7400E-10	-1.598420E-10	-1.598420E-10	   20.1248	   21.6393	   23.0281	   -0.3587	
 -325.0000	-5.5800E-10	-5.5800E-10	-1.606817E-10	-1.606817E-10	   20.1248	   21.6408	   23.0281	   -0.3534	
 -330.0000	-7.0100E-10	-7.0100E-10	-1.610731E-10	-1.610731E-10	   20.1248	   21.6394	   23.0117	   -0.3644	
 -335.0000	-6.7000E-10	-6.7000E-10	-1.618282E-10	-1.618282E-10	   20.1223	   21.6374	   23.0152	   -0.3640	
 -340.0000	-7.0600E-10	-7.0600E-10	-1.623770E-10	-1.623770E-10	   20.1223	   21.6356	   23.0092	   -0.3691	
 -345.0000	-7.1300E-10	-7.1300E-10	-1.626818E-10	-1.626818E-10	   20.1223	   21.6366	   23.0196	   -0.3620	
 -350.0000	-7.2400E-10	-7.2400E-10	-1.631263E-10	-1.631263E-10	   20.1223	   21.6378	   23.0225	   -0.3593	
 -355.0000	-7.0100E-10	-7.0100E-10	-1.640342E-10	-1.640342E-10	   20.1223	   21.6410	   23.0212	   -0.3575	
 -360.0000	-7.3400E-10	-7.3400E-10	-1.645141E-10	-1.645141E-10	   20.1223	   21.6411	   23.0275	   -0.3536	
 -365.0000	-7.4000E-10	-7.4000E-10	-1.650085E-10	-1.650085E-10	   20.1223	   21.6356	   23.0228	   -0.3611	
 -370.0000	-7.1300E-10	-7.1300E-10	-1.655372E-10	-1.655372E-10	   20.1197	   21.6387	   23.0335	   -0.3520	
 -375.0000	-7.5100E-10	-7.5100E-10	-1.661130E-10	-1.661130E-10	   20.1223	   21.6407	   23.0209	   -0.3578	
 -380.0000	-6.6900E-10	-6.6900E-10	-1.666397E-10	-1.666397E-10	   20.1197	   21.6428	   23.0275	   -0.3521	
 -385.0000	-6.8500E-10	-6.8500E-10	-1.672270E-10	-1.672270E-10	   20.1197	   21.6428	   23.0281	   -0.3521	
 -390.0000	-7.6500E-10	-7.6500E-10	-1.675413E-10	-1.675413E-10	   20.1197	   21.6401	   23.0281	   -0.3540	
 -395.0000	-7.6500E-10	-7.6500E-10	-1.679505E-10	-1.679505E-10	   20.1197	   21.6409	   23.0329	   -0.3506	
 -400.0000	-6.9300E-10	-6.9300E-10	-1.688137E-10	-1.688137E-10	   20.1197	   21.6409	   23.0313	   -0.3506	
 -410.0000	-7.6200E-10	-7.6200E-10	-1.694768E-10	-1.694768E-10	   20.1197	   21.6418	   23.0313	   -0.3508	
 -420.0000	-8.2200E-10	-8.2200E-10	-1.706915E-10	-1.706915E-10	   20.1197	   21.6406	   23.0250	   -0.3555	
 -430.0000	-8.4800E-10	-8.4800E-10	-1.707887E-10	-1.707887E-10	   20.1223	   21.6385	   23.0430	   -0.3466	
 -440.0000	-8.6200E-10	-8.6200E-10	-1.723037E-10	-1.723037E-10	   20.1197	   21.6411	   23.0247	   -0.3553	
 -450.0000	-9.0800E-10	-9.0800E-10	-1.730410E-10	-1.730410E-10	   20.1197	   21.6444	   23.0357	   -0.3459	
 -460.0000	-9.5800E-10	-9.5800E-10	-1.733185E-10	-1.733185E-10	   20.1197	   21.6482	   23.0424	   -0.3388	
 -470.0000	-1.1360E-9	-1.1360E-9	-1.742253E-10	-1.742253E-10	   20.1197	   21.6446	   23.0430	   -0.3414	
 -480.0000	-1.0270E-9	-1.0270E-9	-1.748618E-10	-1.748618E-10	   20.1197	   21.6446	   23.0462	   -0.3414	
 -490.0000	-1.0370E-9	-1.0370E-9	-1.754951E-10	-1.754951E-10	   20.1197	   21.6466	   23.0462	   -0.3379	
 -500.0000	-1.1890E-9	-1.1890E-9	-1.760070E-10	-1.760070E-10	   20.1171	   21.6433	   23.0620	   -0.3313	
 -510.0000	-1.1950E-9	-1.1950E-9	-1.768879E-10	-1.768879E-10	   20.1197	   21.6433	   23.0550	   -0.3313	
 -520.0000	-1.1290E-9	-1.1290E-9	-1.774461E-10	-1.774461E-10	   20.1197	   21.6390	   23.0550	   -0.3390	
 -530.0000	-1.1210E-9	-1.1210E-9	-1.786295E-10	-1.786295E-10	   20.1171	   21.6432	   23.0519	   -0.3373	
 -540.0000	-1.1140E-9	-1.1140E-9	-1.787240E-10	-1.787240E-10	   20.1197	   21.6352	   23.0636	   -0.3371	
 -550.0000	-1.1840E-9	-1.1840E-9	-1.797663E-10	-1.797663E-10	   20.1171	   21.6352	   23.0702	   -0.3371	
 -560.0000	-1.2430E-9	-1.2430E-9	-1.808212E-10	-1.808212E-10	   20.1171	   21.6416	   23.0702	   -0.3278	
 -570.0000	-1.1820E-9	-1.1820E-9	-1.811861E-10	-1.811861E-10	   20.1171	   21.6439	   23.0626	   -0.3304	
 -580.0000	-1.3290E-9	-1.3290E-9	-1.815254E-10	-1.815254E-10	   20.1197	   21.6432	   23.0769	   -0.3225	
 -590.0000	-1.1810E-9	-1.1810E-9	-1.821732E-10	-1.821732E-10	   20.1171	   21.6432	   23.0806	   -0.3225	
 -600.0000	-1.1830E-9	-1.1830E-9	-1.832422E-10	-1.832422E-10	   20.1171	   21.6432	   23.0806	   -0.3202	
 -610.0000	-1.2110E-9	-1.2110E-9	-1.834111E-10	-1.834111E-10	   20.1171	   21.6471	   23.0844	   -0.3147	
 -620.0000	-1.2970E-9	-1.2970E-9	-1.844074E-10	-1.844074E-10	   20.1171	   21.6462	   23.0844	   -0.3155	
 -630.0000	-1.3970E-9	-1.3970E-9	-1.851872E-10	-1.851872E-10	   20.1171	   21.6418	   23.0829	   -0.3201	
 -640.0000	-1.3490E-9	-1.3490E-9	-1.855403E-10	-1.855403E-10	   20.1171	   21.6418	   23.0829	   -0.3201	
 -650.0000	-1.2820E-9	-1.2820E-9	-1.860521E-10	-1.860521E-10	   20.1171	   21.6471	   23.0990	   -0.3061	
 -660.0000	-1.3220E-9	-1.3220E-9	-1.867849E-10	-1.867849E-10	   20.1171	   21.6471	   23.1015	   -0.3061	
 -670.0000	-1.2780E-9	-1.2780E-9	-1.874326E-10	-1.874326E-10	   20.1171	   21.6493	   23.1015	   -0.3027	
 -680.0000	-1.3240E-9	-1.3240E-9	-1.881890E-10	-1.881890E-10	   20.1171	   21.6471	   23.1085	   -0.3005	
 -690.0000	-1.3680E-9	-1.3680E-9	-1.885229E-10	-1.885229E-10	   20.1171	   21.6465	   23.1025	   -0.3045	
 -700.0000	-1.3490E-9	-1.3490E-9	-1.890899E-10	-1.890899E-10	   20.1171	   21.6465	   23.1094	   -0.3045	
 -710.0000	-1.3600E-9	-1.3600E-9	-1.899763E-10	-1.899763E-10	   20.1171	   21.6458	   23.1094	   -0.3009	
 -720.0000	-1.3760E-9	-1.3760E-9	-1.905840E-10	-1.905840E-10	   20.1171	   21.6470	   23.1151	   -0.2965	
 -730.0000	-1.4110E-9	-1.4110E-9	-1.909199E-10	-1.909199E-10	   20.1171	   21.6467	   23.1300	   -0.2880	
 -740.0000	-1.3800E-9	-1.3800E-9	-1.916406E-10	-1.916406E-10	   20.1171	   21.6441	   23.1265	   -0.2922	
 -750.0000	-1.4420E-9	-1.4420E-9	-1.929528E-10	-1.929528E-10	   20.1171	   21.6441	   23.1265	   -0.2922	
 -760.0000	-1.4100E-9	-1.4100E-9	-1.934245E-10	-1.934245E-10	   20.1171	   21.6499	   23.1369	   -0.2812	
 -770.0000	-1.4200E-9	-1.4200E-9	-1.942974E-10	-1.942974E-10	   20.1171	   21.6491	   23.1385	   -0.2809	
 -780.0000	-1.4770E-9	-1.4770E-9	-1.945715E-10	-1.945715E-10	   20.1171	   21.6505	   23.1385	   -0.2797	
 -790.0000	-1.4480E-9	-1.4480E-9	-1.956581E-10	-1.956581E-10	   20.1171	   21.6505	   23.1398	   -0.2797	
 -800.0000	-1.5260E-9	-1.5260E-9	-1.959233E-10	-1.959233E-10	   20.1171	   21.6499	   23.1398	   -0.2795	
 -810.0000	-1.4850E-9	-1.4850E-9	-1.972483E-10	-1.972483E-10	   20.1171	   21.6459	   23.1565	   -0.2729	
 -820.0000	-1.4830E-9	-1.4830E-9	-1.981713E-10	-1.981713E-10	   20.1171	   21.6490	   23.1565	   -0.2703	
 -830.0000	-1.5350E-9	-1.5350E-9	-1.987794E-10	-1.987794E-10	   20.1171	   21.6490	   23.1607	   -0.2703	
 -840.0000	-1.5710E-9	-1.5710E-9	-2.000955E-10	-2.000955E-10	   20.1171	   21.6485	   23.1607	   -0.2683	
 -850.0000	-1.6000E-9	-1.6000E-9	-2.007754E-10	-2.007754E-10	   20.1171	   21.6465	   23.1572	   -0.2720	
 -860.0000	-1.5860E-9	-1.5860E-9	-2.019160E-10	-2.019160E-10	   20.1171	   21.6465	   23.1758	   -0.2720	
 -870.0000	-1.6020E-9	-1.6020E-9	-2.026375E-10	-2.026375E-10	   20.1171	   21.6467	   23.1758	   -0.2609	
 -880.0000	-1.6320E-9	-1.6320E-9	-2.038397E-10	-2.038397E-10	   20.1171	   21.6495	   23.1841	   -0.2536	
 -890.0000	-1.6340E-9	-1.6340E-9	-2.052980E-10	-2.052980E-10	   20.1145	   21.6495	   23.1872	   -0.2536	
 -900.0000	-1.5950E-9	-1.5950E-9	-2.062090E-10	-2.062090E-10	   20.1145	   21.6491	   23.1872	   -0.2520	
 -910.0000	-1.6400E-9	-1.6400E-9	-2.072888E-10	-2.072888E-10	   20.1171	   21.6467	   23.2078	   -0.2419	
 -920.0000	-1.6850E-9	-1.6850E-9	-2.084981E-10	-2.084981E-10	   20.1145	   21.6448	   23.2087	   -0.2430	
 -930.0000	-1.6160E-9	-1.6160E-9	-2.101291E-10	-2.101291E-10	   20.1171	   21.6448	   23.2274	   -0.2430	
 -940.0000	-1.6850E-9	-1.6850E-9	-2.112608E-10	-2.112608E-10	   20.1171	   21.6480	   23.2274	   -0.2292	
 -950.0000	-1.6820E-9	-1.6820E-9	-2.135164E-10	-2.135164E-10	   20.1145	   21.6479	   23.2154	   -0.2364	
 -960.0000	-1.6530E-9	-1.6530E-9	-2.144981E-10	-2.144981E-10	   20.1145	   21.6444	   23.2154	   -0.2393	
 -970.0000	-1.6620E-9	-1.6620E-9	-2.161587E-10	-2.161587E-10	   20.1171	   21.6444	   23.2223	   -0.2393	
 -980.0000	-1.7730E-9	-1.7730E-9	-2.181341E-10	-2.181341E-10	   20.1171	   21.6427	   23.2223	   -0.2367	
 -990.0000	-1.7220E-9	-1.7220E-9	-2.200704E-10	-2.200704E-10	   20.1145	   21.6454	   23.2302	   -0.2297	
-1000.0000	-1.7710E-9	-1.7710E-9	-2.224032E-10	-2.224032E-10	   20.1145	   21.6447	   23.2378	   -0.2258	
