GCD Test
Bias: 5000.000000
IV_34252_009_PSS_HM_XX_DIODEHALF_PCB
Date/Time: 9/14/2021 11:28:58 AM
Sensor Name: DIODEHALF
Type: P
Annealing Status: Not Irradiated and Not Annealed
Environment: 20C
Tester: Andrew Kent

Time Delay per Ramp Step (s): 0.500

CV Time Delay per Measurement (s) :0.500

AC Voltage (V): 0.500

Current Number of measurements per voltage: 1.000

IV Time Delay per Measurement (s) :0.000


BiasVoltage	Total Current_Avg	Total Current_0	Bias Current_Avg	Bias Current_0	Temperature	Air_Temp	Humidity	Dewpoint	
   -5.0000	-3.1200E-10	-3.1200E-10	5.476450E-10	5.476450E-10	   20.1274	   22.1057	    7.3469	  -14.7036	
  -10.0000	-2.9800E-10	-2.9800E-10	7.821241E-10	7.821241E-10	   20.1274	   22.1410	    7.3469	  -14.6854	
  -15.0000	-5.8900E-10	-5.8900E-10	6.653146E-10	6.653146E-10	   20.1274	   22.1556	    7.3476	  -14.6736	
  -20.0000	-3.6700E-10	-3.6700E-10	5.470246E-10	5.470246E-10	   20.1274	   22.1303	    7.3529	  -14.6834	
  -25.0000	-5.6500E-10	-5.6500E-10	4.819042E-10	4.819042E-10	   20.1248	   22.1303	    7.3501	  -14.6834	
  -30.0000	-1.0400E-10	-1.0400E-10	4.152552E-10	4.152552E-10	   20.1248	   22.1471	    7.3501	  -14.6757	
  -35.0000	-2.7400E-10	-2.7400E-10	3.887205E-10	3.887205E-10	   20.1274	   22.0991	    7.3393	  -14.7288	
  -40.0000	-1.6400E-10	-1.6400E-10	3.886620E-10	3.886620E-10	   20.1274	   22.1231	    7.3520	  -14.6903	
  -45.0000	-2.5800E-10	-2.5800E-10	3.510782E-10	3.510782E-10	   20.1274	   22.1231	    7.3488	  -14.6903	
  -50.0000	-6.4600E-10	-6.4600E-10	2.979646E-10	2.979646E-10	   20.1274	   22.1513	    7.3488	  -14.6747	
  -55.0000	-3.5400E-10	-3.5400E-10	2.873233E-10	2.873233E-10	   20.1248	   22.1098	    7.3447	  -14.7120	
  -60.0000	-5.6800E-10	-5.6800E-10	2.298098E-10	2.298098E-10	   20.1274	   22.1098	    7.3447	  -14.7120	
  -65.0000	-7.6700E-10	-7.6700E-10	2.371527E-10	2.371527E-10	   20.1274	   22.1904	    7.3447	  -14.6526	
  -70.0000	-6.5300E-10	-6.5300E-10	2.955843E-10	2.955843E-10	   20.1274	   22.1904	    7.3390	  -14.6526	
  -75.0000	-6.3800E-10	-6.3800E-10	3.451789E-10	3.451789E-10	   20.1274	   22.1063	    7.3390	  -14.7241	
  -80.0000	-5.2000E-10	-5.2000E-10	3.005499E-10	3.005499E-10	   20.1248	   22.1058	    7.3476	  -14.7103	
  -85.0000	-5.2000E-10	-5.2000E-10	2.927582E-10	2.927582E-10	   20.1248	   22.1058	    7.3371	  -14.7103	
  -90.0000	-4.2800E-10	-4.2800E-10	2.965104E-10	2.965104E-10	   20.1248	   22.0923	    7.3371	  -14.7375	
  -95.0000	-6.1300E-10	-6.1300E-10	3.094687E-10	3.094687E-10	   20.1248	   22.0990	    7.3425	  -14.7237	
 -100.0000	-8.5200E-10	-8.5200E-10	3.011374E-10	3.011374E-10	   20.1248	   22.1237	    7.3397	  -14.7101	
 -105.0000	-8.4200E-10	-8.4200E-10	2.926233E-10	2.926233E-10	   20.1248	   22.1237	    7.3302	  -14.7101	
 -110.0000	-5.3500E-10	-5.3500E-10	3.016656E-10	3.016656E-10	   20.1248	   22.1413	    7.3302	  -14.7128	
 -115.0000	-7.2600E-10	-7.2600E-10	2.899114E-10	2.899114E-10	   20.1248	   22.0968	    7.3340	  -14.7394	
 -120.0000	-5.1800E-10	-5.1800E-10	2.922014E-10	2.922014E-10	   20.1274	   22.0968	    7.3321	  -14.7394	
 -125.0000	-7.9300E-10	-7.9300E-10	2.880934E-10	2.880934E-10	   20.1274	   22.1168	    7.3321	  -14.7278	
 -130.0000	-6.4600E-10	-6.4600E-10	3.018703E-10	3.018703E-10	   20.1274	   22.1184	    7.3349	  -14.7219	
 -135.0000	-5.1900E-10	-5.1900E-10	2.979660E-10	2.979660E-10	   20.1248	   22.1137	    7.3397	  -14.7175	
 -140.0000	-6.6800E-10	-6.6800E-10	2.988685E-10	2.988685E-10	   20.1248	   22.1137	    7.3330	  -14.7175	
 -145.0000	-8.2500E-10	-8.2500E-10	3.055806E-10	3.055806E-10	   20.1248	   22.1491	    7.3330	  -14.7024	
 -150.0000	-8.7300E-10	-8.7300E-10	2.993390E-10	2.993390E-10	   20.1248	   22.1269	    7.3257	  -14.7308	
 -155.0000	-8.5200E-10	-8.5200E-10	2.957625E-10	2.957625E-10	   20.1248	   22.1269	    7.3283	  -14.7308	
 -160.0000	-9.3300E-10	-9.3300E-10	2.942459E-10	2.942459E-10	   20.1248	   22.1269	    7.3283	  -14.7266	
 -165.0000	-6.1900E-10	-6.1900E-10	2.972501E-10	2.972501E-10	   20.1248	   22.0986	    7.3229	  -14.7563	
 -170.0000	-5.3400E-10	-5.3400E-10	2.701489E-10	2.701489E-10	   20.1248	   22.1627	    7.3289	  -14.6992	
 -175.0000	-6.6000E-10	-6.6000E-10	2.594945E-10	2.594945E-10	   20.1248	   22.1627	    7.3340	  -14.6992	
 -180.0000	-9.8500E-10	-9.8500E-10	2.684440E-10	2.684440E-10	   20.1248	   22.1179	    7.3340	  -14.7238	
 -185.0000	-9.2700E-10	-9.2700E-10	2.575996E-10	2.575996E-10	   20.1223	   22.1179	    7.3223	  -14.7238	
 -190.0000	-9.9000E-10	-9.9000E-10	2.522288E-10	2.522288E-10	   20.1223	   22.0893	    7.3223	  -14.7642	
 -195.0000	-9.0700E-10	-9.0700E-10	2.472360E-10	2.472360E-10	   20.1223	   22.0893	    7.3321	  -14.7642	
 -200.0000	-9.1300E-10	-9.1300E-10	2.486673E-10	2.486673E-10	   20.1223	   22.1156	    7.3321	  -14.7286	
 -205.0000	-9.1300E-10	-9.1300E-10	2.532929E-10	2.532929E-10	   20.1223	   22.1264	    7.3264	  -14.7301	
 -210.0000	-6.5800E-10	-6.5800E-10	2.138327E-10	2.138327E-10	   20.1223	   22.1264	    7.3264	  -14.7301	
 -215.0000	-9.6900E-10	-9.6900E-10	2.301481E-10	2.301481E-10	   20.1223	   22.1061	    7.3166	  -14.7613	
 -220.0000	-8.5100E-10	-8.5100E-10	2.326050E-10	2.326050E-10	   20.1223	   22.1061	    7.3248	  -14.7613	
 -225.0000	-6.8100E-10	-6.8100E-10	2.160969E-10	2.160969E-10	   20.1223	   22.1337	    7.3248	  -14.7274	
 -230.0000	-6.1600E-10	-6.1600E-10	2.241631E-10	2.241631E-10	   20.1223	   22.1337	    7.3245	  -14.7274	
 -235.0000	-7.5100E-10	-7.5100E-10	1.932429E-10	1.932429E-10	   20.1223	   22.0910	    7.3245	  -14.7594	
 -240.0000	-1.0770E-9	-1.0770E-9	1.947108E-10	1.947108E-10	   20.1197	   22.0910	    7.3204	  -14.7594	
 -245.0000	-7.5300E-10	-7.5300E-10	1.986744E-10	1.986744E-10	   20.1197	   22.1466	    7.3204	  -14.7251	
 -250.0000	-7.2300E-10	-7.2300E-10	1.987419E-10	1.987419E-10	   20.1197	   22.0821	    7.3159	  -14.7800	
 -255.0000	-6.6400E-10	-6.6400E-10	1.979097E-10	1.979097E-10	   20.1197	   22.0821	    7.3216	  -14.7800	
 -260.0000	-6.9400E-10	-6.9400E-10	1.775231E-10	1.775231E-10	   20.1197	   22.1273	    7.3216	  -14.7373	
 -265.0000	-1.1130E-9	-1.1130E-9	1.778536E-10	1.778536E-10	   20.1197	   22.0965	    7.3191	  -14.7641	
 -270.0000	-1.1090E-9	-1.1090E-9	1.796024E-10	1.796024E-10	   20.1197	   22.1114	    7.3166	  -14.7574	
 -275.0000	-7.6400E-10	-7.6400E-10	1.696308E-10	1.696308E-10	   20.1197	   22.1114	    7.3099	  -14.7574	
 -280.0000	-8.4500E-10	-8.4500E-10	1.485652E-10	1.485652E-10	   20.1197	   22.0528	    7.3099	  -14.8115	
 -285.0000	-8.1100E-10	-8.1100E-10	1.643833E-10	1.643833E-10	   20.1171	   22.0528	    7.3125	  -14.8115	
 -290.0000	-8.2900E-10	-8.2900E-10	1.512028E-10	1.512028E-10	   20.1171	   22.1614	    7.3125	  -14.7273	
 -295.0000	-7.2400E-10	-7.2400E-10	1.622201E-10	1.622201E-10	   20.1171	   22.1614	    7.3137	  -14.7273	
 -300.0000	-1.1500E-9	-1.1500E-9	1.630364E-10	1.630364E-10	   20.1171	   22.0580	    7.3137	  -14.8015	
 -305.0000	-7.5300E-10	-7.5300E-10	1.485819E-10	1.485819E-10	   20.1171	   22.0939	    7.3163	  -14.7708	
 -310.0000	-8.7100E-10	-8.7100E-10	1.571944E-10	1.571944E-10	   20.1171	   22.0939	    7.3156	  -14.7708	
 -315.0000	-8.4300E-10	-8.4300E-10	1.547964E-10	1.547964E-10	   20.1171	   22.0878	    7.3156	  -14.7764	
 -320.0000	-7.9400E-10	-7.9400E-10	1.519647E-10	1.519647E-10	   20.1171	   22.1063	    7.3071	  -14.7768	
 -325.0000	-1.1300E-9	-1.1300E-9	1.613868E-10	1.613868E-10	   20.1171	   22.1162	    7.3090	  -14.7664	
 -330.0000	-1.0790E-9	-1.0790E-9	1.467125E-10	1.467125E-10	   20.1171	   22.1162	    7.3096	  -14.7664	
 -335.0000	-1.1480E-9	-1.1480E-9	1.468374E-10	1.468374E-10	   20.1171	   22.0849	    7.3096	  -14.7884	
 -340.0000	-9.4900E-10	-9.4900E-10	1.497144E-10	1.497144E-10	   20.1145	   22.0977	    7.3090	  -14.7801	
 -345.0000	-8.3000E-10	-8.3000E-10	1.446414E-10	1.446414E-10	   20.1145	   22.0618	    7.3033	  -14.8159	
 -350.0000	-8.6700E-10	-8.6700E-10	1.615007E-10	1.615007E-10	   20.1145	   22.0618	    7.3147	  -14.8159	
 -355.0000	-1.0980E-9	-1.0980E-9	1.466858E-10	1.466858E-10	   20.1145	   22.0618	    7.3147	  -14.7971	
 -360.0000	-8.7300E-10	-8.7300E-10	1.504522E-10	1.504522E-10	   20.1145	   22.0913	    7.3061	  -14.7895	
 -365.0000	-1.2220E-9	-1.2220E-9	1.576040E-10	1.576040E-10	   20.1171	   22.0776	    7.3049	  -14.8017	
 -370.0000	-9.6400E-10	-9.6400E-10	1.487791E-10	1.487791E-10	   20.1145	   22.0776	    7.3004	  -14.8017	
 -375.0000	-9.9100E-10	-9.9100E-10	1.289393E-10	1.289393E-10	   20.1145	   22.0978	    7.3004	  -14.7941	
 -380.0000	-1.1440E-9	-1.1440E-9	1.521317E-10	1.521317E-10	   20.1145	   22.0811	    7.3033	  -14.8017	
 -385.0000	-1.0220E-9	-1.0220E-9	1.553770E-10	1.553770E-10	   20.1145	   22.0811	    7.3052	  -14.8017	
 -390.0000	-1.1530E-9	-1.1530E-9	1.494628E-10	1.494628E-10	   20.1145	   22.0811	    7.3052	  -14.7986	
 -395.0000	-9.7800E-10	-9.7800E-10	1.443680E-10	1.443680E-10	   20.1120	   22.0811	    7.3014	  -14.7986	
 -400.0000	-9.4000E-10	-9.4000E-10	1.435875E-10	1.435875E-10	   20.1120	   22.0973	    7.3014	  -14.7929	
 -410.0000	-1.2240E-9	-1.2240E-9	1.488907E-10	1.488907E-10	   20.1145	   22.0973	    7.3030	  -14.7929	
 -420.0000	-1.0050E-9	-1.0050E-9	1.494767E-10	1.494767E-10	   20.1145	   22.0739	    7.3030	  -14.8075	
 -430.0000	-1.3430E-9	-1.3430E-9	1.561382E-10	1.561382E-10	   20.1120	   22.1328	    7.3052	  -14.7605	
 -440.0000	-1.3060E-9	-1.3060E-9	1.588899E-10	1.588899E-10	   20.1120	   22.1328	    7.3052	  -14.7605	
 -450.0000	-1.4020E-9	-1.4020E-9	1.459330E-10	1.459330E-10	   20.1120	   22.0984	    7.3046	  -14.7868	
 -460.0000	-1.3990E-9	-1.3990E-9	1.449931E-10	1.449931E-10	   20.1120	   22.0984	    7.3001	  -14.7868	
 -470.0000	-1.0820E-9	-1.0820E-9	1.550420E-10	1.550420E-10	   20.1120	   22.1254	    7.3001	  -14.7743	
 -480.0000	-1.5050E-9	-1.5050E-9	1.533556E-10	1.533556E-10	   20.1120	   22.1097	    7.3039	  -14.7796	
 -490.0000	-1.5440E-9	-1.5440E-9	1.552478E-10	1.552478E-10	   20.1120	   22.0654	    7.3042	  -14.8117	
 -500.0000	-1.5210E-9	-1.5210E-9	1.402922E-10	1.402922E-10	   20.1120	   22.0654	    7.2989	  -14.8117	
 -510.0000	-1.5570E-9	-1.5570E-9	1.426998E-10	1.426998E-10	   20.1120	   22.0750	    7.2989	  -14.8136	
 -520.0000	-1.2310E-9	-1.2310E-9	1.442302E-10	1.442302E-10	   20.1120	   22.1081	    7.3096	  -14.7713	
 -530.0000	-1.6540E-9	-1.6540E-9	1.399453E-10	1.399453E-10	   20.1120	   22.1081	    7.3131	  -14.7713	
 -540.0000	-1.6060E-9	-1.6060E-9	1.599960E-10	1.599960E-10	   20.1120	   22.0997	    7.3131	  -14.7718	
 -550.0000	-1.4670E-9	-1.4670E-9	1.561836E-10	1.561836E-10	   20.1120	   22.0997	    7.3096	  -14.7718	
 -560.0000	-1.6200E-9	-1.6200E-9	1.537693E-10	1.537693E-10	   20.1120	   22.0929	    7.3096	  -14.7825	
 -570.0000	-1.7430E-9	-1.7430E-9	1.526336E-10	1.526336E-10	   20.1120	   22.0635	    7.3109	  -14.8021	
 -580.0000	-1.5000E-9	-1.5000E-9	1.448450E-10	1.448450E-10	   20.1120	   22.0635	    7.3058	  -14.8021	
 -590.0000	-1.7510E-9	-1.7510E-9	1.418994E-10	1.418994E-10	   20.1120	   22.0635	    7.3058	  -14.8105	
 -600.0000	-1.7540E-9	-1.7540E-9	1.413307E-10	1.413307E-10	   20.1094	   22.0996	    7.3071	  -14.7818	
 -610.0000	-1.3700E-9	-1.3700E-9	1.438989E-10	1.438989E-10	   20.1094	   22.0925	    7.3185	  -14.7681	
 -620.0000	-1.8030E-9	-1.8030E-9	1.426395E-10	1.426395E-10	   20.1120	   22.0925	    7.3083	  -14.7681	
 -630.0000	-1.5250E-9	-1.5250E-9	1.392347E-10	1.392347E-10	   20.1120	   22.0532	    7.3083	  -14.8139	
 -640.0000	-1.8460E-9	-1.8460E-9	1.410827E-10	1.410827E-10	   20.1094	   22.0532	    7.3109	  -14.8139	
 -650.0000	-1.4900E-9	-1.4900E-9	1.475044E-10	1.475044E-10	   20.1094	   22.0432	    7.3109	  -14.8171	
 -660.0000	-1.8730E-9	-1.8730E-9	1.357262E-10	1.357262E-10	   20.1094	   22.0432	    7.3074	  -14.8171	
 -670.0000	-1.9690E-9	-1.9690E-9	1.398796E-10	1.398796E-10	   20.1094	   22.0799	    7.3074	  -14.7958	
 -680.0000	-1.8770E-9	-1.8770E-9	1.471163E-10	1.471163E-10	   20.1068	   22.0916	    7.3191	  -14.7678	
 -690.0000	-1.9090E-9	-1.9090E-9	1.420440E-10	1.420440E-10	   20.1068	   22.0916	    7.3112	  -14.7678	
 -700.0000	-1.9350E-9	-1.9350E-9	1.497413E-10	1.497413E-10	   20.1068	   22.0674	    7.3112	  -14.7988	
 -710.0000	-1.9790E-9	-1.9790E-9	1.453390E-10	1.453390E-10	   20.1068	   22.0825	    7.3042	  -14.7991	
 -720.0000	-1.9300E-9	-1.9300E-9	1.311183E-10	1.311183E-10	   20.1068	   22.0825	    7.3109	  -14.7991	
 -730.0000	-1.7020E-9	-1.7020E-9	1.378969E-10	1.378969E-10	   20.1068	   22.0853	    7.3109	  -14.7860	
 -740.0000	-1.9270E-9	-1.9270E-9	1.209460E-10	1.209460E-10	   20.1068	   22.0472	    7.3150	  -14.8073	
 -750.0000	-1.5940E-9	-1.5940E-9	1.309828E-10	1.309828E-10	   20.1068	   22.0516	    7.3001	  -14.8287	
 -760.0000	-1.9680E-9	-1.9680E-9	1.354363E-10	1.354363E-10	   20.1068	   22.0770	    7.3058	  -14.8005	
 -770.0000	-2.0280E-9	-2.0280E-9	1.403540E-10	1.403540E-10	   20.1068	   22.0553	    7.3102	  -14.8092	
 -780.0000	-1.9500E-9	-1.9500E-9	1.280054E-10	1.280054E-10	   20.1068	   22.0553	    7.3074	  -14.8092	
 -790.0000	-1.7920E-9	-1.7920E-9	1.383437E-10	1.383437E-10	   20.1068	   22.0694	    7.3074	  -14.8035	
 -800.0000	-1.7510E-9	-1.7510E-9	1.279220E-10	1.279220E-10	   20.1042	   22.0839	    7.3033	  -14.7996	
 -810.0000	-1.7790E-9	-1.7790E-9	1.326120E-10	1.326120E-10	   20.1042	   22.0839	    7.3033	  -14.7996	
 -820.0000	-2.1130E-9	-2.1130E-9	1.361468E-10	1.361468E-10	   20.1042	   22.0734	    7.3118	  -14.7933	
 -830.0000	-1.8340E-9	-1.8340E-9	1.347683E-10	1.347683E-10	   20.1042	   22.0337	    7.3071	  -14.8304	
 -840.0000	-2.1100E-9	-2.1100E-9	1.276448E-10	1.276448E-10	   20.1042	   22.0337	    7.2957	  -14.8304	
 -850.0000	-1.8900E-9	-1.8900E-9	1.303784E-10	1.303784E-10	   20.1042	   22.0559	    7.2957	  -14.8329	
 -860.0000	-2.2020E-9	-2.2020E-9	1.289148E-10	1.289148E-10	   20.1068	   22.0681	    7.3083	  -14.8029	
 -870.0000	-2.2230E-9	-2.2230E-9	1.248852E-10	1.248852E-10	   20.1042	   22.0681	    7.2963	  -14.8029	
 -880.0000	-2.0130E-9	-2.0130E-9	1.217475E-10	1.217475E-10	   20.1042	   22.1088	    7.2963	  -14.7928	
 -890.0000	-2.0050E-9	-2.0050E-9	1.263148E-10	1.263148E-10	   20.1042	   22.0969	    7.2966	  -14.8011	
 -900.0000	-2.3030E-9	-2.3030E-9	1.161507E-10	1.161507E-10	   20.1042	   22.0969	    7.3014	  -14.8011	
 -910.0000	-2.3510E-9	-2.3510E-9	1.197151E-10	1.197151E-10	   20.1042	   22.0969	    7.3014	  -14.7932	
 -920.0000	-2.3990E-9	-2.3990E-9	1.250243E-10	1.250243E-10	   20.1068	   22.0621	    7.3008	  -14.8199	
 -930.0000	-2.1580E-9	-2.1580E-9	1.229129E-10	1.229129E-10	   20.1042	   22.0744	    7.2932	  -14.8235	
 -940.0000	-2.1670E-9	-2.1670E-9	1.188544E-10	1.188544E-10	   20.1042	   22.0744	    7.2960	  -14.8235	
 -950.0000	-2.5770E-9	-2.5770E-9	1.131743E-10	1.131743E-10	   20.1042	   22.0869	    7.2960	  -14.8095	
 -960.0000	-2.4330E-9	-2.4330E-9	1.208467E-10	1.208467E-10	   20.1042	   22.0869	    7.2938	  -14.8095	
 -970.0000	-2.5970E-9	-2.5970E-9	9.609889E-11	9.609889E-11	   20.1042	   22.0614	    7.2938	  -14.8320	
 -980.0000	-2.4560E-9	-2.4560E-9	8.758698E-11	8.758698E-11	   20.1042	   22.0531	    7.2910	  -14.8428	
 -990.0000	-2.6050E-9	-2.6050E-9	9.856495E-11	9.856495E-11	   20.1042	   22.0531	    7.2925	  -14.8428	
-1000.0000	-2.4020E-9	-2.4020E-9	9.318912E-11	9.318912E-11	   20.1042	   22.0531	    7.2925	  -14.8402	
