GCD Test
Bias: 5000.000000
CV_34330_048_2-S_HM_XX_DIODE
Date/Time: 9/9/2021 6:58:54 PM
Sensor Name: DIODE
Type: P
Annealing Status: Not Irradiated and Not Annealed
Environment: -20C
Tester: Andrew Kent

Time Delay per Ramp Step (s): 0.500

CV Time Delay per Measurement (s) :0.500

AC Voltage (V): 0.500

Current Number of measurements per voltage: 1.000

IV Time Delay per Measurement (s) :0.000


BiasVoltage	LCR_Cp_freq1000.0	LCR_Rp_freqfreq1000.0	Temperature	Air_Temp	Humidity	Dewpoint	
   -5.0000	1.020E-10	4.641E+8	   20.0064	   21.7159	    9.4946	  -11.8575	
  -10.0000	7.288E-11	8.759E+8	   20.0064	   21.7177	    9.2596	  -12.1670	
  -15.0000	5.971E-11	1.013E+9	   20.0039	   21.7173	    8.9965	  -12.5239	
  -20.0000	5.143E-11	1.073E+9	   20.0039	   21.7191	    8.8109	  -12.7797	
  -25.0000	4.553E-11	1.170E+9	   20.0039	   21.7191	    8.8109	  -12.7797	
  -30.0000	4.122E-11	1.184E+9	   20.0013	   21.7191	    8.5655	  -13.1273	
  -35.0000	3.755E-11	1.156E+9	   20.0039	   21.7199	    8.4412	  -13.3061	
  -40.0000	3.525E-11	1.003E+9	   20.0039	   21.7213	    8.3558	  -13.4297	
  -45.0000	3.307E-11	1.466E+8	   20.0039	   21.7182	    8.2676	  -13.5619	
  -50.0000	2.789E-11	1.124E+9	   20.0039	   21.7204	    8.1812	  -13.6887	
  -55.0000	2.685E-11	1.180E+9	   20.0039	   21.7194	    8.1120	  -13.7933	
  -60.0000	2.594E-11	1.209E+9	   20.0064	   21.7265	    8.0436	  -13.8913	
  -65.0000	2.514E-11	1.277E+9	   20.0039	   21.7247	    7.9994	  -13.9599	
  -70.0000	2.442E-11	1.317E+9	   20.0064	   21.7280	    7.9367	  -14.0532	
  -75.0000	2.379E-11	1.359E+9	   20.0039	   21.7247	    7.8903	  -14.1273	
  -80.0000	2.320E-11	1.386E+9	   20.0039	   21.7211	    7.8488	  -14.1940	
  -85.0000	2.267E-11	1.472E+9	   20.0013	   21.7228	    7.8077	  -14.2566	
  -90.0000	2.219E-11	1.484E+9	   20.0039	   21.7233	    7.7657	  -14.3219	
  -95.0000	2.175E-11	1.509E+9	   20.0039	   21.7245	    7.7299	  -14.3771	
 -100.0000	2.134E-11	1.512E+9	   20.0039	   21.7253	    7.6932	  -14.4343	
 -105.0000	2.095E-11	1.522E+9	   20.0039	   21.7231	    7.6670	  -14.4774	
 -110.0000	2.060E-11	1.517E+9	   20.0039	   21.7218	    7.6458	  -14.5120	
 -115.0000	2.025E-11	1.623E+9	   20.0039	   21.7207	    7.6148	  -14.5620	
 -120.0000	1.994E-11	1.648E+9	   20.0039	   21.7211	    7.5974	  -14.5895	
 -125.0000	1.965E-11	1.698E+9	   20.0013	   21.7210	    7.5405	  -14.6807	
 -130.0000	1.939E-11	1.691E+9	   20.0039	   21.7179	    7.5342	  -14.6932	
 -135.0000	1.912E-11	1.647E+9	   20.0013	   21.7212	    7.5054	  -14.7371	
 -140.0000	1.887E-11	1.627E+9	   20.0013	   21.7212	    7.4908	  -14.7606	
 -145.0000	1.864E-11	1.688E+9	   20.0013	   21.7143	    7.4734	  -14.7938	
 -150.0000	1.842E-11	1.694E+9	   20.0013	   21.7183	    7.4567	  -14.8180	
 -155.0000	1.820E-11	1.712E+9	   20.0013	   21.7183	    7.4250	  -14.8694	
 -160.0000	1.800E-11	1.722E+9	   20.0013	   21.7224	    7.4130	  -14.8860	
 -165.0000	1.781E-11	1.750E+9	   20.0013	   21.7224	    7.4130	  -14.8860	
 -170.0000	1.763E-11	1.799E+9	   20.0039	   21.7191	    7.3975	  -14.9138	
 -175.0000	1.745E-11	1.842E+9	   20.0039	   21.7186	    7.3722	  -14.9555	
 -180.0000	1.728E-11	1.872E+9	   20.0013	   21.7186	    7.3707	  -14.9581	
 -185.0000	1.712E-11	1.827E+9	   20.0039	   21.7199	    7.3631	  -14.9696	
 -190.0000	1.697E-11	1.847E+9	   20.0039	   21.7183	    7.3412	  -15.0067	
 -195.0000	1.682E-11	1.810E+9	   20.0039	   21.7169	    7.3292	  -15.0275	
 -200.0000	1.667E-11	1.944E+9	   20.0039	   21.7246	    7.3150	  -15.0453	
 -205.0000	1.654E-11	1.831E+9	   20.0013	   21.7258	    7.3052	  -15.0606	
 -210.0000	1.640E-11	1.894E+9	   20.0013	   21.7224	    7.2954	  -15.0793	
 -215.0000	1.628E-11	1.974E+9	   20.0013	   21.7215	    7.2868	  -15.0941	
 -220.0000	1.614E-11	1.930E+9	   20.0039	   21.7219	    7.2748	  -15.1137	
 -225.0000	1.602E-11	1.960E+9	   20.0013	   21.7219	    7.2660	  -15.1284	
 -230.0000	1.591E-11	1.951E+9	   20.0039	   21.7211	    7.2568	  -15.1443	
 -235.0000	1.579E-11	1.900E+9	   20.0013	   21.7246	    7.2511	  -15.1511	
 -240.0000	1.568E-11	1.915E+9	   20.0039	   21.7256	    7.2423	  -15.1651	
 -245.0000	1.557E-11	1.996E+9	   20.0039	   21.7205	    7.2385	  -15.1753	
 -250.0000	1.546E-11	1.990E+9	   20.0039	   21.7227	    7.2400	  -15.1710	
 -255.0000	1.535E-11	1.927E+9	   20.0039	   21.7204	    7.2157	  -15.2133	
 -260.0000	1.524E-11	2.019E+9	   20.0039	   21.7201	    7.2220	  -15.2030	
 -265.0000	1.514E-11	1.974E+9	   20.0039	   21.7192	    7.2230	  -15.2020	
 -270.0000	1.504E-11	1.980E+9	   20.0013	   21.7173	    7.2157	  -15.2156	
 -275.0000	1.494E-11	2.008E+9	   20.0013	   21.7204	    7.1986	  -15.2419	
 -280.0000	1.485E-11	2.021E+9	   20.0013	   21.7204	    7.2075	  -15.2271	
 -285.0000	1.476E-11	2.069E+9	   20.0013	   21.7180	    7.1913	  -15.2558	
 -290.0000	1.467E-11	2.016E+9	   20.0013	   21.7178	    7.1888	  -15.2602	
 -295.0000	1.459E-11	2.011E+9	   20.0039	   21.7197	    7.1913	  -15.2546	
 -300.0000	1.452E-11	2.003E+9	   20.0013	   21.7162	    7.1825	  -15.2720	
 -305.0000	1.447E-11	2.054E+9	   20.0039	   21.7191	    7.1803	  -15.2736	
 -310.0000	1.443E-11	2.143E+9	   20.0039	   21.7178	    7.1727	  -15.2873	
 -315.0000	1.440E-11	2.022E+9	   20.0039	   21.7178	    7.1708	  -15.2905	
 -320.0000	1.439E-11	2.024E+9	   20.0039	   21.7214	    7.1629	  -15.3011	
 -325.0000	1.437E-11	2.017E+9	   20.0039	   21.7138	    7.1679	  -15.2982	
 -330.0000	1.435E-11	2.063E+9	   20.0039	   21.7203	    7.1635	  -15.3009	
 -335.0000	1.434E-11	2.183E+9	   20.0013	   21.7160	    7.1638	  -15.3035	
 -340.0000	1.433E-11	2.045E+9	   20.0013	   21.7173	    7.1518	  -15.3228	
 -345.0000	1.432E-11	2.026E+9	   20.0013	   21.7217	    7.1562	  -15.3120	
 -350.0000	1.432E-11	2.075E+9	   20.0013	   21.7217	    7.1562	  -15.3120	
 -355.0000	1.431E-11	2.125E+9	   20.0013	   21.7203	    7.1528	  -15.3190	
 -360.0000	1.430E-11	2.213E+9	   20.0013	   21.7146	    7.1417	  -15.3418	
 -365.0000	1.430E-11	2.099E+9	   20.0039	   21.7174	    7.1512	  -15.3237	
 -370.0000	1.430E-11	2.160E+9	   20.0039	   21.7174	    7.1388	  -15.3445	
 -375.0000	1.429E-11	2.163E+9	   20.0039	   21.7196	    7.1379	  -15.3445	
 -380.0000	1.428E-11	2.133E+9	   20.0013	   21.7148	    7.1392	  -15.3459	
 -385.0000	1.428E-11	2.169E+9	   20.0039	   21.7235	    7.1376	  -15.3422	
 -390.0000	1.427E-11	2.017E+9	   20.0013	   21.7168	    7.1195	  -15.3776	
 -395.0000	1.427E-11	2.108E+9	   20.0013	   21.7213	    7.1354	  -15.3476	
 -400.0000	1.427E-11	2.025E+9	   20.0013	   21.7167	    7.1256	  -15.3675	
 -410.0000	1.426E-11	2.114E+9	   20.0013	   21.7199	    7.1316	  -15.3550	
 -420.0000	1.425E-11	2.078E+9	   20.0039	   21.7126	    7.1192	  -15.3812	
 -430.0000	1.425E-11	2.032E+9	   20.0039	   21.7189	    7.1214	  -15.3728	
 -440.0000	1.425E-11	2.069E+9	   20.0039	   21.7189	    7.1151	  -15.3835	
 -450.0000	1.424E-11	2.054E+9	   20.0039	   21.7178	    7.1183	  -15.3790	
 -460.0000	1.423E-11	2.257E+9	   20.0039	   21.7178	    7.1183	  -15.3790	
 -470.0000	1.423E-11	2.094E+9	   20.0039	   21.7177	    7.1072	  -15.3978	
 -480.0000	1.423E-11	2.108E+9	   20.0039	   21.7140	    7.1085	  -15.3984	
 -490.0000	1.423E-11	2.050E+9	   20.0013	   21.7115	    7.1018	  -15.4115	
 -500.0000	1.422E-11	2.134E+9	   20.0013	   21.7115	    7.1018	  -15.4115	
 -510.0000	1.422E-11	2.047E+9	   20.0013	   21.7135	    7.1015	  -15.4105	
 -520.0000	1.422E-11	2.051E+9	   20.0013	   21.7153	    7.1022	  -15.4082	
 -530.0000	1.421E-11	2.031E+9	   20.0013	   21.7120	    7.0961	  -15.4207	
 -540.0000	1.421E-11	2.034E+9	   19.9987	   21.7125	    7.0879	  -15.4343	
 -550.0000	1.421E-11	2.101E+9	   20.0013	   21.7138	    7.0873	  -15.4344	
 -560.0000	1.421E-11	2.179E+9	   20.0039	   21.7138	    7.0810	  -15.4344	
 -570.0000	1.420E-11	2.087E+9	   20.0039	   21.7085	    7.0952	  -15.4249	
 -580.0000	1.420E-11	2.082E+9	   20.0039	   21.7091	    7.0800	  -15.4503	
 -590.0000	1.420E-11	2.087E+9	   20.0039	   21.7107	    7.0863	  -15.4384	
 -600.0000	1.420E-11	2.054E+9	   20.0013	   21.7084	    7.0803	  -15.4502	
