GCD Test
Bias: 5000.000000
CV_38695_002_2-S_HM_XX_DIODEQUARTER_Irradiated_Annealed_60C_80min
Date/Time: 3/20/2022 5:38:35 PM
Sensor Name: 
Type: P
Annealing Status: Irradiated and Annealed at 60C for 80 minutes
Environment: -20C
Tester: Andrew Kent

Time Delay per Ramp Step (s): 1.000

CV Time Delay per Measurement (s) :0.500

AC Voltage (V): 0.500

Current Number of measurements per voltage: 4.000

IV Time Delay per Measurement (s) :0.000


BiasVoltage	LCR_Cp_freq1000.0	LCR_Cp_freq10000.0	LCR_Rp_freq1000.0	LCR_Rp_freq10000.0	Temperature	Air_Temp	Humidity	Dewpoint	
  -10.0000	2.004E-12	-9.156E-13	1.952E+7	1.615E+7	  -20.0135	    7.8570	    4.1075	  -31.5122	
  -20.0000	1.852E-12	-8.817E-13	2.883E+7	1.957E+7	  -20.0186	    7.8511	    4.0867	  -31.5691	
  -30.0000	1.387E-12	-8.603E-13	3.696E+7	2.212E+7	  -20.0186	    7.8406	    4.0655	  -31.6304	
  -40.0000	1.093E-12	-8.452E-13	4.471E+7	2.441E+7	  -20.0211	    7.7669	    4.0436	  -31.7380	
  -50.0000	8.829E-13	-8.339E-13	5.231E+7	2.627E+7	  -20.0059	    7.7819	    3.9785	  -31.8953	
  -60.0000	7.278E-13	-8.263E-13	6.005E+7	2.813E+7	  -20.0160	    7.7426	    3.9402	  -32.0227	
  -70.0000	6.121E-13	-8.201E-13	6.739E+7	2.956E+7	  -20.0160	    7.7521	    3.8978	  -32.1275	
  -80.0000	5.209E-13	-8.155E-13	7.450E+7	3.089E+7	  -20.0135	    7.7829	    3.8349	  -32.2735	
  -90.0000	4.487E-13	-8.127E-13	8.147E+7	3.217E+7	  -20.0237	    7.7416	    3.8178	  -32.3484	
 -100.0000	4.001E-13	-8.103E-13	8.783E+7	3.328E+7	  -20.0389	    7.7416	    3.7941	  -32.4124	
 -110.0000	3.465E-13	-8.091E-13	9.442E+7	3.427E+7	  -20.0338	    7.7935	    3.7375	  -32.5305	
 -120.0000	3.085E-13	-7.989E-13	1.011E+8	3.509E+7	  -20.0287	    7.7700	    3.6983	  -32.6551	
 -130.0000	2.755E-13	-7.982E-13	1.066E+8	3.586E+7	  -20.0237	    7.7449	    3.6844	  -32.7113	
 -140.0000	2.480E-13	-7.977E-13	1.118E+8	3.665E+7	  -20.0186	    7.7650	    3.6736	  -32.7272	
 -150.0000	2.178E-13	-7.981E-13	1.169E+8	3.748E+7	  -20.0262	    7.7718	    3.6325	  -32.8377	
 -160.0000	2.036E-13	-7.988E-13	1.213E+8	3.821E+7	  -20.0160	    7.7614	    3.6211	  -32.8770	
 -170.0000	1.776E-13	-7.989E-13	1.268E+8	3.888E+7	  -20.0160	    7.7424	    3.6135	  -32.9117	
 -180.0000	1.623E-13	-7.998E-13	1.307E+8	3.958E+7	  -20.0186	    7.7820	    3.5974	  -32.9298	
 -190.0000	1.417E-13	-8.015E-13	1.355E+8	4.044E+7	  -20.0186	    7.7439	    3.5876	  -32.9843	
 -200.0000	1.170E-13	-8.023E-13	1.404E+8	4.113E+7	  -20.0186	    7.7996	    3.5965	  -32.9203	
 -210.0000	9.722E-14	-8.033E-13	1.442E+8	4.183E+7	  -20.0160	    7.7778	    3.5844	  -32.9697	
 -220.0000	8.037E-14	-8.043E-13	1.495E+8	4.262E+7	  -20.0186	    7.7547	    3.5825	  -32.9912	
 -230.0000	7.013E-14	-8.049E-13	1.532E+8	4.334E+7	  -20.0059	    7.7002	    3.5753	  -33.0500	
 -240.0000	5.753E-14	-8.053E-13	1.577E+8	4.401E+7	  -19.9906	    7.7046	    3.5629	  -33.0821	
 -250.0000	3.298E-14	-8.068E-13	1.636E+8	4.496E+7	  -19.9880	    7.7039	    3.5547	  -33.1062	
 -260.0000	1.095E-14	-8.074E-13	1.683E+8	4.567E+7	  -19.9830	    7.7046	    3.5645	  -33.0776	
 -270.0000	-2.703E-15	-8.076E-13	1.726E+8	4.640E+7	  -19.9855	    7.6838	    3.5449	  -33.1484	
 -280.0000	-1.524E-14	-8.080E-13	1.777E+8	4.704E+7	  -19.9931	    7.6963	    3.5436	  -33.1433	
 -290.0000	-3.005E-14	-8.083E-13	1.822E+8	4.774E+7	  -19.9931	    7.7106	    3.5300	  -33.1726	
 -300.0000	-3.947E-14	-8.086E-13	1.875E+8	4.840E+7	  -19.9855	    7.7242	    3.5310	  -33.1604	
 -310.0000	-5.816E-14	-8.095E-13	1.934E+8	4.924E+7	  -19.9830	    7.7242	    3.5269	  -33.1723	
 -320.0000	-6.724E-14	-8.090E-13	1.981E+8	4.982E+7	  -19.9880	    7.7097	    3.5092	  -33.2337	
 -330.0000	-8.220E-14	-8.095E-13	2.038E+8	5.047E+7	  -19.9906	    7.7477	    3.4899	  -33.2634	
 -340.0000	-9.409E-14	-8.094E-13	2.080E+8	5.095E+7	  -19.9931	    7.6931	    3.4782	  -33.3356	
 -350.0000	-1.083E-13	-8.096E-13	2.149E+8	5.165E+7	  -20.0211	    7.7559	    3.4349	  -33.4196	
 -360.0000	-1.152E-13	-8.094E-13	2.196E+8	5.191E+7	  -20.0211	    7.7616	    3.4311	  -33.4269	
 -370.0000	-1.262E-13	-8.102E-13	2.255E+8	5.241E+7	  -20.0109	    7.7285	    3.4254	  -33.4667	
 -380.0000	-1.312E-13	-8.099E-13	2.309E+8	5.301E+7	  -19.9931	    7.6780	    3.4330	  -33.4793	
 -390.0000	-1.418E-13	-8.104E-13	2.362E+8	5.343E+7	  -20.0084	    7.6780	    3.4567	  -33.4093	
 -400.0000	-1.472E-13	-8.110E-13	2.427E+8	5.386E+7	  -20.0084	    7.6525	    3.5164	  -33.2524	
 -410.0000	-1.549E-13	-8.108E-13	2.474E+8	5.414E+7	  -20.0059	    7.6914	    3.5433	  -33.1477	
 -420.0000	-1.604E-13	-8.105E-13	2.524E+8	5.431E+7	  -19.9982	    7.6520	    3.5708	  -33.0961	
 -430.0000	-1.581E-13	-8.101E-13	2.576E+8	5.460E+7	  -20.0160	    7.6626	    3.6161	  -32.9602	
 -440.0000	-1.674E-13	-8.098E-13	2.624E+8	5.485E+7	  -20.0109	    7.7185	    3.6284	  -32.8864	
 -450.0000	-1.655E-13	-8.100E-13	2.642E+8	5.487E+7	  -20.0186	    7.7422	    3.6559	  -32.7926	
 -460.0000	-1.685E-13	-8.101E-13	2.694E+8	5.517E+7	  -20.0084	    7.7555	    3.6528	  -32.7922	
 -470.0000	-1.675E-13	-8.104E-13	2.745E+8	5.540E+7	  -19.9982	    7.7555	    3.6790	  -32.7188	
 -480.0000	-1.722E-13	-8.103E-13	2.783E+8	5.561E+7	  -19.9982	    7.7282	    3.7460	  -32.5527	
 -490.0000	-1.755E-13	-8.099E-13	2.818E+8	5.552E+7	  -19.9982	    7.7186	    3.7748	  -32.4809	
 -500.0000	-1.776E-13	-8.093E-13	2.822E+8	5.569E+7	  -20.0109	    7.6860	    3.7913	  -32.4591	
 -510.0000	-1.739E-13	-8.094E-13	2.851E+8	5.563E+7	  -19.9779	    7.7234	    3.7843	  -32.4517	
 -520.0000	-1.764E-13	-8.103E-13	2.905E+8	5.608E+7	  -19.9957	    7.7383	    3.7818	  -32.4482	
 -530.0000	-1.753E-13	-8.095E-13	2.927E+8	5.595E+7	  -19.9982	    7.7158	    3.7849	  -32.4554	
 -540.0000	-1.766E-13	-8.092E-13	2.933E+8	5.584E+7	  -20.0135	    7.7032	    3.7789	  -32.4806	
 -550.0000	-1.770E-13	-8.096E-13	2.949E+8	5.606E+7	  -19.9906	    7.7145	    3.7887	  -32.4460	
 -560.0000	-1.755E-13	-8.096E-13	2.991E+8	5.611E+7	  -19.9982	    7.7383	    3.8118	  -32.3669	
 -570.0000	-1.840E-13	-8.090E-13	3.027E+8	5.606E+7	  -19.9957	    7.7316	    3.8261	  -32.3333	
 -580.0000	-1.774E-13	-8.092E-13	3.020E+8	5.615E+7	  -19.9931	    7.7519	    3.8539	  -32.2445	
 -590.0000	-1.807E-13	-8.087E-13	3.045E+8	5.609E+7	  -19.9906	    7.7547	    3.8558	  -32.2375	
 -600.0000	-1.786E-13	-8.085E-13	3.066E+8	5.599E+7	  -19.9830	    7.7386	    3.8539	  -32.2538	
 -610.0000	-1.731E-13	-8.084E-13	3.080E+8	5.604E+7	  -19.9753	    7.7118	    3.8520	  -32.2777	
 -620.0000	-1.767E-13	-8.092E-13	3.114E+8	5.621E+7	  -19.9804	    7.7015	    3.8789	  -32.2133	
 -630.0000	-1.791E-13	-8.088E-13	3.113E+8	5.635E+7	  -20.0033	    7.7189	    3.9016	  -32.1409	
 -640.0000	-1.765E-13	-8.088E-13	3.108E+8	5.613E+7	  -19.9982	    7.6958	    3.9108	  -32.1329	
 -650.0000	-1.759E-13	-8.085E-13	3.156E+8	5.625E+7	  -19.9957	    7.6879	    3.8982	  -32.1718	
 -660.0000	-1.800E-13	-8.086E-13	3.136E+8	5.624E+7	  -19.9931	    7.6509	    3.8950	  -32.2062	
 -670.0000	-1.731E-13	-8.084E-13	3.178E+8	5.624E+7	  -19.9830	    7.6849	    3.8735	  -32.2393	
 -680.0000	-1.761E-13	-8.082E-13	3.168E+8	5.623E+7	  -19.9931	    7.6423	    3.8719	  -32.2734	
 -690.0000	-1.764E-13	-8.085E-13	3.206E+8	5.644E+7	  -19.9957	    7.6748	    3.8621	  -32.2767	
 -700.0000	-1.760E-13	-8.078E-13	3.202E+8	5.627E+7	  -19.9931	    7.6772	    3.8495	  -32.3087	
 -710.0000	-1.676E-13	-8.080E-13	3.203E+8	5.622E+7	  -19.9880	    7.6412	    3.8482	  -32.3374	
 -720.0000	-1.742E-13	-8.081E-13	3.229E+8	5.623E+7	  -19.9906	    7.6600	    3.8387	  -32.3496	
 -730.0000	-1.752E-13	-8.074E-13	3.214E+8	5.614E+7	  -19.9931	    7.6758	    3.8289	  -32.3648	
 -740.0000	-1.734E-13	-8.079E-13	3.263E+8	5.647E+7	  -19.9931	    7.6534	    3.8374	  -32.3576	
 -750.0000	-1.716E-13	-8.075E-13	3.264E+8	5.633E+7	  -19.9880	    7.6319	    3.8476	  -32.3456	
 -760.0000	-1.719E-13	-8.078E-13	3.235E+8	5.640E+7	  -19.9880	    7.6276	    3.8409	  -32.3664	
 -770.0000	-1.678E-13	-8.074E-13	3.274E+8	5.625E+7	  -19.9982	    7.6490	    3.8488	  -32.3302	
 -780.0000	-1.719E-13	-8.075E-13	3.267E+8	5.635E+7	  -20.0033	    7.6281	    3.8299	  -32.3957	
 -790.0000	-1.674E-13	-8.080E-13	3.305E+8	5.635E+7	  -20.0135	    7.6118	    3.8083	  -32.4650	
 -800.0000	-1.705E-13	-8.076E-13	3.299E+8	5.636E+7	  -20.0262	    7.6564	    3.7985	  -32.4602	
 -810.0000	-1.710E-13	-8.072E-13	3.307E+8	5.629E+7	  -20.0262	    7.6734	    3.7922	  -32.4654	
 -820.0000	-1.691E-13	-8.070E-13	3.315E+8	5.625E+7	  -20.0262	    7.6719	    3.8074	  -32.4254	
 -830.0000	-1.685E-13	-8.076E-13	3.313E+8	5.656E+7	  -20.0338	    7.6555	    3.8242	  -32.3918	
 -840.0000	-1.737E-13	-8.078E-13	3.334E+8	5.654E+7	  -20.0237	    7.6583	    3.8299	  -32.3745	
 -850.0000	-1.710E-13	-8.076E-13	3.313E+8	5.650E+7	  -20.0389	    7.6644	    3.8295	  -32.3711	
 -860.0000	-1.733E-13	-8.072E-13	3.310E+8	5.647E+7	  -20.0465	    7.6465	    3.8121	  -32.4304	
 -870.0000	-1.704E-13	-8.070E-13	3.318E+8	5.642E+7	  -20.0415	    7.6251	    3.8011	  -32.4753	
 -880.0000	-1.690E-13	-8.068E-13	3.314E+8	5.637E+7	  -20.0364	    7.6853	    3.7897	  -32.4639	
 -890.0000	-1.700E-13	-8.073E-13	3.342E+8	5.647E+7	  -20.0287	    7.6986	    3.7676	  -32.5147	
 -900.0000	-1.691E-13	-8.071E-13	3.345E+8	5.644E+7	  -20.0262	    7.7037	    3.7423	  -32.5803	
 -910.0000	-1.651E-13	-8.062E-13	3.344E+8	5.611E+7	  -19.9982	    7.6576	    3.7328	  -32.6386	
 -920.0000	-1.638E-13	-8.058E-13	3.359E+8	5.602E+7	  -19.9931	    7.6730	    3.7100	  -32.6906	
 -930.0000	-1.659E-13	-8.068E-13	3.354E+8	5.639E+7	  -20.0008	    7.6144	    3.6803	  -32.8139	
 -940.0000	-1.685E-13	-8.066E-13	3.362E+8	5.633E+7	  -19.9830	    7.6646	    3.6664	  -32.8176	
 -950.0000	-1.640E-13	-8.066E-13	3.363E+8	5.638E+7	  -19.9753	    7.6581	    3.6724	  -32.8054	
 -960.0000	-1.636E-13	-8.066E-13	3.370E+8	5.625E+7	  -19.9906	    7.6676	    3.6774	  -32.7847	
 -970.0000	-1.681E-13	-8.062E-13	3.379E+8	5.634E+7	  -19.9855	    7.6644	    3.6891	  -32.7543	
 -980.0000	-1.665E-13	-8.063E-13	3.377E+8	5.616E+7	  -19.9753	    7.6504	    3.6942	  -32.7501	
 -990.0000	-1.708E-13	-8.057E-13	3.354E+8	5.608E+7	  -19.9728	    7.6777	    3.7220	  -32.6541	
-1000.0000	-1.669E-13	-8.058E-13	3.373E+8	5.603E+7	  -19.9779	    7.6446	    3.7312	  -32.6520	
