GCD Test
Bias: 5000.000000
IV_37399_033_2-S_HM_XX_DIODE
Date/Time: 11/3/2021 3:52:33 PM
Sensor Name: DIODE
Type: P
Annealing Status: Not Irradiated and Not Annealed
Environment: 20C
Tester: Andrew Kent

Time Delay per Ramp Step (s): 0.500

CV Time Delay per Measurement (s) :0.500

AC Voltage (V): 0.500

Current Number of measurements per voltage: 1.000

IV Time Delay per Measurement (s) :0.000


BiasVoltage	Total Current_Avg	Total Current_0	Bias Current_Avg	Bias Current_0	Temperature	Air_Temp	Humidity	Dewpoint	
   -5.0000	-2.1100E-10	-2.1100E-10	-1.402852E-10	-1.402852E-10	   20.1326	   21.5093	    6.7669	  -16.1394	
  -10.0000	-1.2700E-10	-1.2700E-10	-1.449144E-10	-1.449144E-10	   20.1223	   21.5093	    6.7600	  -16.1394	
  -15.0000	-2.2600E-10	-2.2600E-10	-1.515686E-10	-1.515686E-10	   20.1223	   21.5053	    6.7600	  -16.1546	
  -20.0000	-2.1200E-10	-2.1200E-10	-1.635892E-10	-1.635892E-10	   20.1145	   21.5032	    6.7571	  -16.1612	
  -25.0000	-2.1700E-10	-2.1700E-10	-1.857598E-10	-1.857598E-10	   20.1094	   21.5046	    6.7612	  -16.1529	
  -30.0000	-2.3900E-10	-2.3900E-10	-1.925450E-10	-1.925450E-10	   20.1017	   21.4964	    6.7577	  -16.1650	
  -35.0000	-3.2600E-10	-3.2600E-10	-1.983098E-10	-1.983098E-10	   20.0965	   21.4917	    6.7647	  -16.1561	
  -40.0000	-4.2100E-10	-4.2100E-10	-2.050450E-10	-2.050450E-10	   20.0914	   21.4919	    6.7666	  -16.1526	
  -45.0000	-3.4300E-10	-3.4300E-10	-2.071951E-10	-2.071951E-10	   20.0837	   21.4949	    6.7565	  -16.1684	
  -50.0000	-4.2900E-10	-4.2900E-10	-2.087868E-10	-2.087868E-10	   20.0759	   21.4886	    6.7603	  -16.1663	
  -55.0000	-4.4800E-10	-4.4800E-10	-2.102138E-10	-2.102138E-10	   20.0656	   21.4886	    6.7631	  -16.1663	
  -60.0000	-3.2900E-10	-3.2900E-10	-2.119965E-10	-2.119965E-10	   20.0656	   21.4908	    6.7631	  -16.1596	
  -65.0000	-3.4300E-10	-3.4300E-10	-2.131240E-10	-2.131240E-10	   20.0579	   21.4908	    6.7612	  -16.1596	
  -70.0000	-4.8900E-10	-4.8900E-10	-2.145830E-10	-2.145830E-10	   20.0579	   21.4871	    6.7612	  -16.1656	
  -75.0000	-3.6500E-10	-3.6500E-10	-2.154200E-10	-2.154200E-10	   20.0502	   21.4834	    6.7568	  -16.1762	
  -80.0000	-5.0500E-10	-5.0500E-10	-2.162372E-10	-2.162372E-10	   20.0399	   21.4834	    6.7603	  -16.1762	
  -85.0000	-4.0600E-10	-4.0600E-10	-2.177621E-10	-2.177621E-10	   20.0399	   21.4772	    6.7603	  -16.1746	
  -90.0000	-4.5800E-10	-4.5800E-10	-2.182062E-10	-2.182062E-10	   20.0322	   21.4686	    6.7584	  -16.1842	
  -95.0000	-5.4200E-10	-5.4200E-10	-2.191486E-10	-2.191486E-10	   20.0245	   21.4686	    6.7644	  -16.1842	
 -100.0000	-4.1800E-10	-4.1800E-10	-2.195909E-10	-2.195909E-10	   20.0219	   21.4702	    6.7559	  -16.1724	
 -105.0000	-4.1400E-10	-4.1400E-10	-2.199884E-10	-2.199884E-10	   20.0167	   21.4670	    6.7517	  -16.1899	
 -110.0000	-4.2500E-10	-4.2500E-10	-2.212047E-10	-2.212047E-10	   20.0142	   21.4704	    6.7625	  -16.1946	
 -115.0000	-5.1900E-10	-5.1900E-10	-2.215482E-10	-2.215482E-10	   20.0142	   21.4687	    6.7625	  -16.1769	
 -120.0000	-4.2300E-10	-4.2300E-10	-2.218871E-10	-2.218871E-10	   20.0116	   21.4693	    6.7502	  -16.1983	
 -125.0000	-4.5800E-10	-4.5800E-10	-2.231320E-10	-2.231320E-10	   20.0090	   21.4657	    6.7622	  -16.1797	
 -130.0000	-5.3300E-10	-5.3300E-10	-2.241308E-10	-2.241308E-10	   20.0064	   21.4664	    6.7622	  -16.1791	
 -135.0000	-4.1900E-10	-4.1900E-10	-2.253635E-10	-2.253635E-10	   20.0064	   21.4643	    6.7543	  -16.1947	
 -140.0000	-4.6000E-10	-4.6000E-10	-2.259278E-10	-2.259278E-10	   20.0064	   21.4685	    6.7543	  -16.1916	
 -145.0000	-4.3500E-10	-4.3500E-10	-2.271418E-10	-2.271418E-10	   20.0064	   21.4630	    6.7514	  -16.2006	
 -150.0000	-5.1000E-10	-5.1000E-10	-2.280987E-10	-2.280987E-10	   20.0064	   21.4625	    6.7492	  -16.2049	
 -155.0000	-4.4400E-10	-4.4400E-10	-2.286911E-10	-2.286911E-10	   20.0064	   21.4623	    6.7454	  -16.2118	
 -160.0000	-4.5600E-10	-4.5600E-10	-2.308564E-10	-2.308564E-10	   20.0064	   21.4652	    6.7492	  -16.2030	
 -165.0000	-4.8200E-10	-4.8200E-10	-2.312304E-10	-2.312304E-10	   20.0064	   21.4595	    6.7555	  -16.1959	
 -170.0000	-4.7200E-10	-4.7200E-10	-2.324299E-10	-2.324299E-10	   20.0039	   21.4571	    6.7464	  -16.2139	
 -175.0000	-5.2600E-10	-5.2600E-10	-2.337188E-10	-2.337188E-10	   20.0039	   21.4555	    6.7546	  -16.2005	
 -180.0000	-4.8100E-10	-4.8100E-10	-2.352874E-10	-2.352874E-10	   20.0039	   21.4514	    6.7438	  -16.2225	
 -185.0000	-5.4100E-10	-5.4100E-10	-2.366576E-10	-2.366576E-10	   20.0039	   21.4519	    6.7549	  -16.2026	
 -190.0000	-6.0100E-10	-6.0100E-10	-2.390008E-10	-2.390008E-10	   20.0013	   21.4503	    6.7543	  -16.2049	
 -195.0000	-5.1000E-10	-5.1000E-10	-2.406297E-10	-2.406297E-10	   20.0013	   21.4526	    6.7479	  -16.2144	
 -200.0000	-5.2700E-10	-5.2700E-10	-2.428172E-10	-2.428172E-10	   20.0013	   21.4463	    6.7521	  -16.2117	
 -205.0000	-5.7100E-10	-5.7100E-10	-2.456678E-10	-2.456678E-10	   20.0013	   21.4509	    6.7492	  -16.2134	
 -210.0000	-5.3800E-10	-5.3800E-10	-2.493717E-10	-2.493717E-10	   19.9987	   21.4524	    6.7527	  -16.2061	
 -215.0000	-5.9600E-10	-5.9600E-10	-2.527876E-10	-2.527876E-10	   19.9987	   21.4497	    6.7438	  -16.2238	
 -220.0000	-6.9700E-10	-6.9700E-10	-2.572059E-10	-2.572059E-10	   19.9987	   21.4511	    6.7559	  -16.2015	
 -225.0000	-5.7200E-10	-5.7200E-10	-2.616445E-10	-2.616445E-10	   19.9987	   21.4500	    6.7486	  -16.2152	
 -230.0000	-6.1200E-10	-6.1200E-10	-2.668371E-10	-2.668371E-10	   19.9987	   21.4451	    6.7451	  -16.2249	
 -235.0000	-7.1700E-10	-7.1700E-10	-2.724209E-10	-2.724209E-10	   20.0013	   21.4451	    6.7454	  -16.2243	
 -240.0000	-6.9900E-10	-6.9900E-10	-2.778915E-10	-2.778915E-10	   20.0013	   21.4485	    6.7483	  -16.2169	
 -245.0000	-6.2300E-10	-6.2300E-10	-2.840477E-10	-2.840477E-10	   20.0039	   21.4469	    6.7435	  -16.2264	
 -250.0000	-7.5100E-10	-7.5100E-10	-2.891724E-10	-2.891724E-10	   20.0039	   21.4430	    6.7372	  -16.2404	
 -255.0000	-6.6600E-10	-6.6600E-10	-2.946316E-10	-2.946316E-10	   20.0039	   21.4428	    6.7467	  -16.2238	
 -260.0000	-7.7500E-10	-7.7500E-10	-2.981051E-10	-2.981051E-10	   20.0039	   21.4443	    6.7419	  -16.2311	
 -265.0000	-7.1000E-10	-7.1000E-10	-3.027464E-10	-3.027464E-10	   20.0013	   21.4385	    6.7533	  -16.2152	
 -270.0000	-7.2500E-10	-7.2500E-10	-3.057264E-10	-3.057264E-10	   19.9987	   21.4348	    6.7400	  -16.2415	
 -275.0000	-7.0500E-10	-7.0500E-10	-3.087971E-10	-3.087971E-10	   19.9987	   21.4370	    6.7476	  -16.2264	
 -280.0000	-7.8600E-10	-7.8600E-10	-3.115929E-10	-3.115929E-10	   19.9987	   21.4370	    6.7441	  -16.2264	
 -285.0000	-7.2800E-10	-7.2800E-10	-3.151438E-10	-3.151438E-10	   19.9987	   21.4383	    6.7441	  -16.2316	
 -290.0000	-6.9700E-10	-6.9700E-10	-3.170448E-10	-3.170448E-10	   19.9961	   21.4441	    6.7366	  -16.2302	
 -295.0000	-7.2600E-10	-7.2600E-10	-3.194122E-10	-3.194122E-10	   19.9961	   21.4441	    6.7366	  -16.2408	
 -300.0000	-7.1800E-10	-7.1800E-10	-3.215862E-10	-3.215862E-10	   19.9961	   21.4446	    6.7457	  -16.2331	
 -305.0000	-7.2500E-10	-7.2500E-10	-3.235419E-10	-3.235419E-10	   19.9987	   21.4446	    6.7416	  -16.2242	
 -310.0000	-7.2100E-10	-7.2100E-10	-3.255538E-10	-3.255538E-10	   19.9987	   21.4433	    6.7426	  -16.2324	
 -315.0000	-7.6100E-10	-7.6100E-10	-3.276540E-10	-3.276540E-10	   20.0039	   21.4438	    6.7492	  -16.2304	
 -320.0000	-8.2500E-10	-8.2500E-10	-3.292419E-10	-3.292419E-10	   20.0039	   21.4385	    6.7426	  -16.2225	
 -325.0000	-7.5700E-10	-7.5700E-10	-3.312930E-10	-3.312930E-10	   20.0039	   21.4430	    6.7438	  -16.2309	
 -330.0000	-7.9400E-10	-7.9400E-10	-3.331123E-10	-3.331123E-10	   20.0039	   21.4378	    6.7362	  -16.2325	
 -335.0000	-7.7600E-10	-7.7600E-10	-3.340601E-10	-3.340601E-10	   20.0039	   21.4413	    6.7441	  -16.2434	
 -340.0000	-7.8600E-10	-7.8600E-10	-3.355801E-10	-3.355801E-10	   20.0013	   21.4412	    6.7391	  -16.2294	
 -345.0000	-9.0000E-10	-9.0000E-10	-3.371976E-10	-3.371976E-10	   20.0013	   21.4380	    6.7391	  -16.2408	
 -350.0000	-7.7100E-10	-7.7100E-10	-3.382950E-10	-3.382950E-10	   20.0013	   21.4362	    6.7391	  -16.2421	
 -355.0000	-8.2400E-10	-8.2400E-10	-3.399887E-10	-3.399887E-10	   19.9987	   21.4401	    6.7454	  -16.2280	
 -360.0000	-8.9900E-10	-8.9900E-10	-3.411719E-10	-3.411719E-10	   19.9961	   21.4381	    6.7451	  -16.2300	
 -365.0000	-9.1900E-10	-9.1900E-10	-3.427839E-10	-3.427839E-10	   19.9961	   21.4411	    6.7321	  -16.2509	
 -370.0000	-9.2700E-10	-9.2700E-10	-3.440004E-10	-3.440004E-10	   19.9961	   21.4393	    6.7432	  -16.2325	
 -375.0000	-9.2000E-10	-9.2000E-10	-3.451562E-10	-3.451562E-10	   19.9961	   21.4422	    6.7312	  -16.2517	
 -380.0000	-9.3900E-10	-9.3900E-10	-3.465297E-10	-3.465297E-10	   19.9961	   21.4335	    6.7366	  -16.2485	
 -385.0000	-8.6600E-10	-8.6600E-10	-3.484627E-10	-3.484627E-10	   19.9961	   21.4413	    6.7331	  -16.2490	
 -390.0000	-9.5000E-10	-9.5000E-10	-3.495635E-10	-3.495635E-10	   19.9987	   21.4386	    6.7451	  -16.2297	
 -395.0000	-9.4100E-10	-9.4100E-10	-3.505034E-10	-3.505034E-10	   20.0013	   21.4378	    6.7328	  -16.2521	
 -400.0000	-9.5400E-10	-9.5400E-10	-3.514980E-10	-3.514980E-10	   20.0039	   21.4351	    6.7460	  -16.2305	
 -410.0000	-8.8800E-10	-8.8800E-10	-3.545726E-10	-3.545726E-10	   20.0039	   21.4334	    6.7388	  -16.2447	
 -420.0000	-1.0520E-9	-1.0520E-9	-3.562494E-10	-3.562494E-10	   20.0064	   21.4318	    6.7242	  -16.2717	
 -430.0000	-1.0860E-9	-1.0860E-9	-3.577583E-10	-3.577583E-10	   20.0064	   21.4320	    6.7356	  -16.2514	
 -440.0000	-9.8500E-10	-9.8500E-10	-3.597097E-10	-3.597097E-10	   20.0064	   21.4315	    6.7429	  -16.2388	
 -450.0000	-1.0550E-9	-1.0550E-9	-3.614803E-10	-3.614803E-10	   20.0013	   21.4321	    6.7328	  -16.2563	
 -460.0000	-1.0740E-9	-1.0740E-9	-3.635147E-10	-3.635147E-10	   20.0013	   21.4321	    6.7328	  -16.2563	
 -470.0000	-1.2290E-9	-1.2290E-9	-3.648469E-10	-3.648469E-10	   19.9987	   21.4297	    6.7343	  -16.2553	
 -480.0000	-1.1030E-9	-1.1030E-9	-3.664812E-10	-3.664812E-10	   19.9936	   21.4297	    6.7331	  -16.2553	
 -490.0000	-1.1380E-9	-1.1380E-9	-3.687092E-10	-3.687092E-10	   19.9936	   21.4297	    6.7331	  -16.2575	
 -500.0000	-1.1480E-9	-1.1480E-9	-3.701087E-10	-3.701087E-10	   19.9910	   21.4297	    6.7356	  -16.2530	
 -510.0000	-1.2350E-9	-1.2350E-9	-3.718556E-10	-3.718556E-10	   19.9910	   21.4288	    6.7309	  -16.2621	
 -520.0000	-1.3400E-9	-1.3400E-9	-3.736218E-10	-3.736218E-10	   19.9910	   21.4286	    6.7277	  -16.2678	
 -530.0000	-1.2280E-9	-1.2280E-9	-3.756944E-10	-3.756944E-10	   19.9961	   21.4286	    6.7321	  -16.2678	
 -540.0000	-1.2100E-9	-1.2100E-9	-3.773978E-10	-3.773978E-10	   19.9961	   21.4286	    6.7321	  -16.2600	
 -550.0000	-1.2580E-9	-1.2580E-9	-3.792877E-10	-3.792877E-10	   19.9987	   21.4337	    6.7343	  -16.2523	
 -560.0000	-1.2750E-9	-1.2750E-9	-3.805199E-10	-3.805199E-10	   20.0039	   21.4261	    6.7366	  -16.2539	
 -570.0000	-1.2920E-9	-1.2920E-9	-3.828830E-10	-3.828830E-10	   20.0090	   21.4250	    6.7353	  -16.2570	
 -580.0000	-1.3350E-9	-1.3350E-9	-3.837586E-10	-3.837586E-10	   20.0116	   21.4248	    6.7350	  -16.2577	
 -590.0000	-1.3120E-9	-1.3120E-9	-3.851953E-10	-3.851953E-10	   20.0116	   21.4237	    6.7315	  -16.2647	
 -600.0000	-1.3320E-9	-1.3320E-9	-3.865326E-10	-3.865326E-10	   20.0116	   21.4281	    6.7337	  -16.2575	
 -610.0000	-1.3640E-9	-1.3640E-9	-3.881621E-10	-3.881621E-10	   20.0116	   21.4252	    6.7236	  -16.2776	
 -620.0000	-1.3590E-9	-1.3590E-9	-3.889819E-10	-3.889819E-10	   20.0090	   21.4264	    6.7362	  -16.2543	
 -630.0000	-1.4400E-9	-1.4400E-9	-3.904765E-10	-3.904765E-10	   20.0064	   21.4253	    6.7258	  -16.2736	
 -640.0000	-1.5210E-9	-1.5210E-9	-3.918834E-10	-3.918834E-10	   19.9987	   21.4244	    6.7381	  -16.2524	
 -650.0000	-1.4910E-9	-1.4910E-9	-3.926073E-10	-3.926073E-10	   19.9936	   21.4218	    6.7385	  -16.2537	
 -660.0000	-1.5620E-9	-1.5620E-9	-3.943288E-10	-3.943288E-10	   19.9936	   21.4204	    6.7353	  -16.2604	
 -670.0000	-1.4570E-9	-1.4570E-9	-3.955333E-10	-3.955333E-10	   19.9884	   21.4194	    6.7340	  -16.2633	
 -680.0000	-1.6370E-9	-1.6370E-9	-3.974416E-10	-3.974416E-10	   19.9884	   21.4194	    6.7340	  -16.2633	
 -690.0000	-1.5070E-9	-1.5070E-9	-3.989025E-10	-3.989025E-10	   19.9910	   21.4188	    6.7318	  -16.2677	
 -700.0000	-1.5890E-9	-1.5890E-9	-4.007602E-10	-4.007602E-10	   19.9936	   21.4188	    6.7331	  -16.2677	
 -710.0000	-1.6360E-9	-1.6360E-9	-4.029873E-10	-4.029873E-10	   19.9936	   21.4217	    6.7331	  -16.2634	
 -720.0000	-1.5750E-9	-1.5750E-9	-4.042145E-10	-4.042145E-10	   19.9987	   21.4161	    6.7378	  -16.2590	
 -730.0000	-1.5400E-9	-1.5400E-9	-4.058333E-10	-4.058333E-10	   20.0039	   21.4161	    6.7350	  -16.2590	
 -740.0000	-1.7370E-9	-1.7370E-9	-4.078477E-10	-4.078477E-10	   20.0039	   21.4161	    6.7350	  -16.2641	
 -750.0000	-1.6270E-9	-1.6270E-9	-4.101307E-10	-4.101307E-10	   20.0064	   21.4151	    6.7362	  -16.2626	
 -760.0000	-1.6220E-9	-1.6220E-9	-4.113341E-10	-4.113341E-10	   20.0116	   21.4151	    6.7410	  -16.2626	
 -770.0000	-1.6500E-9	-1.6500E-9	-4.133132E-10	-4.133132E-10	   20.0116	   21.4207	    6.7410	  -16.2501	
 -780.0000	-1.6320E-9	-1.6320E-9	-4.151410E-10	-4.151410E-10	   20.0116	   21.4207	    6.7353	  -16.2501	
 -790.0000	-1.6520E-9	-1.6520E-9	-4.165765E-10	-4.165765E-10	   20.0116	   21.4210	    6.7353	  -16.2600	
 -800.0000	-1.7940E-9	-1.7940E-9	-4.180942E-10	-4.180942E-10	   20.0116	   21.4165	    6.7419	  -16.2514	
 -810.0000	-1.6700E-9	-1.6700E-9	-4.199019E-10	-4.199019E-10	   20.0090	   21.4170	    6.7347	  -16.2640	
 -820.0000	-1.7670E-9	-1.7670E-9	-4.221313E-10	-4.221313E-10	   20.0090	   21.4170	    6.7347	  -16.2640	
 -830.0000	-1.6890E-9	-1.6890E-9	-4.245350E-10	-4.245350E-10	   20.0039	   21.4121	    6.7457	  -16.2479	
 -840.0000	-1.7250E-9	-1.7250E-9	-4.262867E-10	-4.262867E-10	   20.0013	   21.4121	    6.7517	  -16.2479	
 -850.0000	-1.7730E-9	-1.7730E-9	-4.281825E-10	-4.281825E-10	   20.0013	   21.4163	    6.7517	  -16.2343	
 -860.0000	-1.7390E-9	-1.7390E-9	-4.308647E-10	-4.308647E-10	   19.9936	   21.4163	    6.7410	  -16.2343	
 -870.0000	-1.7480E-9	-1.7480E-9	-4.334557E-10	-4.334557E-10	   19.9936	   21.4124	    6.7410	  -16.2561	
 -880.0000	-1.8130E-9	-1.8130E-9	-4.363552E-10	-4.363552E-10	   19.9910	   21.4130	    6.7340	  -16.2680	
 -890.0000	-1.7890E-9	-1.7890E-9	-4.390157E-10	-4.390157E-10	   19.9884	   21.4130	    6.7334	  -16.2680	
 -900.0000	-1.7800E-9	-1.7800E-9	-4.424226E-10	-4.424226E-10	   19.9884	   21.4140	    6.7334	  -16.2684	
 -910.0000	-1.8130E-9	-1.8130E-9	-4.457694E-10	-4.457694E-10	   19.9884	   21.4149	    6.7394	  -16.2571	
 -920.0000	-1.8340E-9	-1.8340E-9	-4.496191E-10	-4.496191E-10	   19.9910	   21.4149	    6.7435	  -16.2571	
 -930.0000	-1.8450E-9	-1.8450E-9	-4.530736E-10	-4.530736E-10	   19.9910	   21.4148	    6.7435	  -16.2499	
 -940.0000	-1.8740E-9	-1.8740E-9	-4.570826E-10	-4.570826E-10	   19.9987	   21.4094	    6.7315	  -16.2752	
 -950.0000	-1.8940E-9	-1.8940E-9	-4.612260E-10	-4.612260E-10	   20.0039	   21.4094	    6.7407	  -16.2752	
 -960.0000	-1.9090E-9	-1.9090E-9	-4.660388E-10	-4.660388E-10	   20.0039	   21.4095	    6.7407	  -16.2588	
 -970.0000	-1.9500E-9	-1.9500E-9	-4.704436E-10	-4.704436E-10	   20.0116	   21.4091	    6.7441	  -16.2529	
 -980.0000	-1.9080E-9	-1.9080E-9	-4.754285E-10	-4.754285E-10	   20.0193	   21.4091	    6.7404	  -16.2529	
 -990.0000	-1.9330E-9	-1.9330E-9	-4.802353E-10	-4.802353E-10	   20.0193	   21.4113	    6.7404	  -16.2581	
-1000.0000	-1.9720E-9	-1.9720E-9	-4.853262E-10	-4.853262E-10	   20.0193	   21.4087	    6.7441	  -16.2533	
