GCD Test
Bias: 5000.000000
CV_D0_CO138_LargeDiode_GRConnected_Irradiated_460min
Date/Time: 8/24/2021 5:12:16 PM
Sensor Name: Pin153
Type: N
Annealing Status: Irradiated, Annealed at 60C for 460 minutes
Environment: -20C
Tester: Andrew Kent

Time Delay per Ramp Step (s): 0.500

CV Time Delay per Measurement (s) :0.500

AC Voltage (V): 0.500

Current Number of measurements per voltage: 4.000

IV Time Delay per Measurement (s) :0.000


BiasVoltage	LCR_Cp_freq1000.0	LCR_Cp_freq10000.0	LCR_Rp_freq1000.0	LCR_Rp_freq10000.0	Temperature	Air_Temp	Humidity	Dewpoint	
    1.0000	4.066E-11	2.034E-11	1.621E+6	1.347E+6	  -20.0262	   10.0026	    4.3735	  -29.3369	
    2.0000	4.479E-11	2.037E-11	1.706E+6	1.382E+6	  -20.0033	    9.9873	    4.3605	  -29.3791	
    3.0000	4.705E-11	2.038E-11	1.783E+6	1.406E+6	  -19.9931	   10.0361	    4.3216	  -29.4393	
    4.0000	4.848E-11	2.039E-11	1.853E+6	1.435E+6	  -19.9830	   10.0286	    4.2938	  -29.5129	
    5.0000	4.970E-11	2.040E-11	1.908E+6	1.455E+6	  -19.9804	    9.9664	    4.2875	  -29.5725	
    6.0000	4.992E-11	2.041E-11	1.984E+6	1.488E+6	  -19.9779	    9.9384	    4.2486	  -29.6885	
    7.0000	5.082E-11	2.042E-11	2.027E+6	1.512E+6	  -19.9830	    9.9617	    4.2324	  -29.7121	
    8.0000	5.100E-11	2.044E-11	2.089E+6	1.541E+6	  -19.9957	    9.8595	    4.2113	  -29.8372	
    9.0000	5.108E-11	2.047E-11	2.153E+6	1.563E+6	  -19.9906	    9.9040	    4.1964	  -29.8430	
   10.0000	5.086E-11	2.048E-11	2.226E+6	1.592E+6	  -19.9880	    9.7887	    4.1875	  -29.9467	
   20.0000	5.062E-11	2.060E-11	2.804E+6	1.767E+6	  -20.0008	    9.8475	    4.1664	  -29.9585	
   30.0000	4.994E-11	2.063E-11	3.228E+6	1.865E+6	  -20.0109	    9.8348	    4.1619	  -29.9787	
   40.0000	4.895E-11	2.062E-11	3.600E+6	1.965E+6	  -20.0186	    9.8959	    4.1471	  -29.9732	
   50.0000	4.790E-11	2.060E-11	3.940E+6	2.062E+6	  -20.0338	    9.8704	    4.1499	  -29.9840	
   60.0000	4.687E-11	2.061E-11	4.256E+6	2.122E+6	  -20.0211	    9.8722	    4.1249	  -30.0462	
   70.0000	4.575E-11	2.059E-11	4.569E+6	2.205E+6	  -20.0109	    9.7408	    4.1227	  -30.1445	
   80.0000	4.504E-11	2.057E-11	4.845E+6	2.295E+6	  -20.0008	    9.7408	    4.1268	  -30.1340	
   90.0000	4.402E-11	2.055E-11	5.141E+6	2.378E+6	  -19.9906	    9.8152	    4.1104	  -30.1235	
  100.0000	4.332E-11	2.053E-11	5.410E+6	2.462E+6	  -19.9830	    9.7693	    4.1091	  -30.1591	
  120.0000	4.175E-11	2.051E-11	5.990E+6	2.602E+6	  -19.9728	    9.8241	    4.1012	  -30.1407	
  140.0000	4.053E-11	2.048E-11	6.544E+6	2.762E+6	  -19.9652	    9.7153	    4.0939	  -30.2360	
  160.0000	3.919E-11	2.043E-11	7.147E+6	2.942E+6	  -19.9779	    9.7556	    4.0683	  -30.2734	
  180.0000	3.806E-11	2.041E-11	7.755E+6	3.099E+6	  -19.9855	    9.7888	    4.0424	  -30.3171	
  200.0000	3.704E-11	2.040E-11	8.381E+6	3.243E+6	  -20.0033	    9.7623	    4.0351	  -30.3546	
  220.0000	3.611E-11	2.035E-11	9.020E+6	3.445E+6	  -20.0084	    9.7248	    4.0035	  -30.4634	
  240.0000	3.538E-11	2.034E-11	9.641E+6	3.587E+6	  -20.0262	    9.7889	    3.9877	  -30.4598	
  260.0000	3.453E-11	2.032E-11	1.031E+7	3.761E+6	  -20.0287	    9.7966	    3.9756	  -30.4860	
  280.0000	3.391E-11	2.030E-11	1.093E+7	3.931E+6	  -20.0109	    9.7716	    3.9652	  -30.5311	
  300.0000	3.312E-11	2.027E-11	1.164E+7	4.130E+6	  -19.9982	    9.8425	    3.9589	  -30.4980	
  320.0000	3.248E-11	2.025E-11	1.231E+7	4.304E+6	  -19.9906	    9.8378	    3.9526	  -30.5181	
  340.0000	3.190E-11	2.022E-11	1.297E+7	4.513E+6	  -19.9753	    9.8990	    3.9472	  -30.4893	
  360.0000	3.132E-11	2.020E-11	1.369E+7	4.708E+6	  -20.0008	    9.8162	    3.9503	  -30.5391	
  380.0000	3.070E-11	2.018E-11	1.443E+7	4.929E+6	  -19.9982	    9.8474	    3.9447	  -30.5323	
  400.0000	3.016E-11	2.014E-11	1.519E+7	5.216E+6	  -20.0059	    9.8165	    3.9317	  -30.5884	
  420.0000	2.965E-11	2.012E-11	1.598E+7	5.454E+6	  -20.0186	    9.7905	    3.9235	  -30.6285	
  440.0000	2.905E-11	2.009E-11	1.688E+7	5.751E+6	  -20.0211	    9.8014	    3.9121	  -30.6513	
  460.0000	2.857E-11	2.006E-11	1.777E+7	6.041E+6	  -20.0135	    9.7411	    3.9269	  -30.6539	
  480.0000	2.809E-11	2.004E-11	1.874E+7	6.394E+6	  -20.0211	    9.7303	    3.9181	  -30.6851	
  500.0000	2.762E-11	2.001E-11	1.975E+7	6.754E+6	  -19.9982	    9.6873	    3.9096	  -30.7380	
  520.0000	2.715E-11	1.999E-11	2.087E+7	7.169E+6	  -19.9880	    9.6873	    3.8985	  -30.7676	
  540.0000	2.667E-11	1.997E-11	2.212E+7	7.601E+6	  -19.9804	    9.6649	    3.8874	  -30.8130	
  560.0000	2.624E-11	1.995E-11	2.341E+7	8.081E+6	  -19.9855	    9.6723	    3.8719	  -30.8495	
  580.0000	2.576E-11	1.992E-11	2.492E+7	8.657E+6	  -19.9880	    9.7188	    3.8552	  -30.8621	
  600.0000	2.535E-11	1.990E-11	2.642E+7	9.288E+6	  -19.9880	    9.7289	    3.8435	  -30.8688	
  620.0000	2.490E-11	1.989E-11	2.813E+7	9.949E+6	  -19.9830	    9.7894	    3.8185	  -30.9124	
  640.0000	2.448E-11	1.987E-11	2.998E+7	1.074E+7	  -19.9906	    9.7963	    3.8125	  -30.9240	
  660.0000	2.407E-11	1.985E-11	3.198E+7	1.162E+7	  -19.9906	    9.8253	    3.7897	  -30.9662	
  680.0000	2.365E-11	1.984E-11	3.424E+7	1.257E+7	  -20.0135	    9.7521	    3.7786	  -31.0478	
  700.0000	2.327E-11	1.983E-11	3.670E+7	1.351E+7	  -20.0211	    9.7498	    3.7657	  -31.0852	
  720.0000	2.292E-11	1.981E-11	3.935E+7	1.473E+7	  -20.0287	    9.6513	    3.7479	  -31.2030	
  740.0000	2.257E-11	1.980E-11	4.237E+7	1.599E+7	  -20.0160	    9.6052	    3.7296	  -31.2862	
  760.0000	2.224E-11	1.979E-11	4.581E+7	1.739E+7	  -20.0313	    9.6457	    3.7328	  -31.2491	
  780.0000	2.196E-11	1.979E-11	4.913E+7	1.880E+7	  -20.0211	    9.6886	    3.7185	  -31.2589	
  800.0000	2.169E-11	1.978E-11	5.302E+7	2.027E+7	  -19.9880	    9.6707	    3.7157	  -31.2793	
  820.0000	2.145E-11	1.978E-11	5.735E+7	2.181E+7	  -19.9906	    9.6259	    3.7090	  -31.3291	
  840.0000	2.126E-11	1.978E-11	6.150E+7	2.325E+7	  -19.9906	    9.6935	    3.6983	  -31.3121	
  860.0000	2.110E-11	1.980E-11	6.565E+7	2.443E+7	  -19.9982	    9.6364	    3.7011	  -31.3439	
  880.0000	2.098E-11	1.981E-11	6.911E+7	2.559E+7	  -20.0059	    9.6042	    3.7151	  -31.3275	
  900.0000	2.089E-11	1.983E-11	7.157E+7	2.631E+7	  -19.9957	    9.6561	    3.7056	  -31.3178	
  920.0000	2.083E-11	1.986E-11	7.314E+7	2.686E+7	  -19.9906	    9.6084	    3.7151	  -31.3245	
  940.0000	2.080E-11	1.988E-11	7.120E+7	2.687E+7	  -19.9702	    9.6440	    3.7030	  -31.3334	
  960.0000	2.084E-11	1.991E-11	6.797E+7	2.621E+7	  -19.9575	    9.6452	    3.6926	  -31.3618	
  980.0000	2.090E-11	1.995E-11	6.445E+7	2.508E+7	  -19.9550	    9.6017	    3.6923	  -31.3930	
 1000.0000	2.102E-11	1.998E-11	6.023E+7	2.381E+7	  -19.9677	    9.5304	    3.6708	  -31.5033	
 1020.0000	2.117E-11	2.002E-11	5.510E+7	2.229E+7	  -19.9855	    9.5140	    3.6537	  -31.5631	
 1040.0000	2.137E-11	2.006E-11	4.983E+7	2.026E+7	  -20.0033	    9.5342	    3.6401	  -31.5876	
 1060.0000	2.165E-11	2.012E-11	4.436E+7	1.800E+7	  -20.0160	    9.4984	    3.6240	  -31.6585	
 1080.0000	2.202E-11	2.020E-11	3.995E+7	1.568E+7	  -20.0389	    9.4573	    3.6284	  -31.6745	
 1100.0000	2.249E-11	2.030E-11	3.523E+7	1.335E+7	  -20.0542	    9.4263	    3.6281	  -31.6970	
