38212_001_PSS_HM_XX_Unirrad
Date/Time: 12/8/2021 10:41:27 AM
Sensor Name: 38212_001_PSS_HM_XX
Station: Tesla
Annealing Status: Not Irradiated
Environment: 23.5C
Tester: Eric Spencer
Notes: 

Time Delay per Ramp Step (s): 0.500

CV Time Delay per Measurement (s) :0.500

AC Voltage (V): 0.500

Current Number of measurements per voltage: 4.000

IV Time Delay per Measurement (s) :0.500


BiasVoltage	LCR_Cp_freq1	LCR_G_freq1	Temperature	Air_Temp	Humidity	Dewpoint	
   -5.0000	4.406E-10	3.921E-7	   23.5000	   27.8141	    1.1313	    0.0000	
  -10.0000	3.007E-10	6.136E-8	   23.5000	   27.8141	    1.1313	    0.0000	
  -15.0000	2.411E-10	3.930E-8	   23.5000	   27.8141	    1.1313	    0.0000	
  -20.0000	2.082E-10	2.987E-8	   23.5000	   27.8141	    1.1313	    0.0000	
  -25.0000	1.859E-10	2.242E-8	   23.5000	   27.8141	    1.1313	    0.0000	
  -30.0000	1.685E-10	1.761E-8	   23.5000	   27.8141	    1.1313	    0.0000	
  -35.0000	1.557E-10	1.547E-8	   23.5000	   27.8141	    1.1313	    0.0000	
  -40.0000	1.448E-10	1.565E-8	   23.5000	   27.8141	    1.1313	    0.0000	
  -45.0000	1.350E-10	1.231E-8	   23.5000	   27.8141	    1.1313	    0.0000	
  -50.0000	1.273E-10	1.514E-8	   23.5000	   27.8141	    1.1313	    0.0000	
  -55.0000	1.221E-10	1.433E-8	   23.5000	   27.8141	    1.1313	    0.0000	
  -60.0000	1.169E-10	1.234E-8	   23.5000	   27.8141	    1.1313	    0.0000	
  -65.0000	1.133E-10	1.253E-8	   23.5000	   27.8141	    1.1313	    0.0000	
  -70.0000	1.036E-10	1.141E-8	   23.5000	   27.8141	    1.1313	    0.0000	
  -75.0000	1.009E-10	1.084E-8	   23.5000	   27.8141	    1.1313	    0.0000	
  -80.0000	9.816E-11	7.944E-9	   23.5000	   27.8141	    1.1313	    0.0000	
  -85.0000	9.488E-11	1.031E-8	   23.5000	   27.8141	    1.1313	    0.0000	
  -90.0000	9.267E-11	1.091E-8	   23.5000	   27.8141	    1.1313	    0.0000	
  -95.0000	9.038E-11	9.966E-9	   23.5000	   27.8141	    1.1313	    0.0000	
 -100.0000	8.871E-11	5.636E-9	   23.5000	   27.8141	    1.1313	    0.0000	
 -105.0000	8.638E-11	9.359E-9	   23.5000	   27.8141	    1.1313	    0.0000	
 -110.0000	8.472E-11	3.494E-9	   23.5000	   27.8141	    1.1313	    0.0000	
 -115.0000	8.281E-11	8.867E-9	   23.5000	   27.8141	    1.1313	    0.0000	
 -120.0000	8.122E-11	5.968E-9	   23.5000	   27.8141	    1.1313	    0.0000	
 -125.0000	7.965E-11	4.659E-9	   23.5000	   27.8141	    1.1313	    0.0000	
 -130.0000	7.888E-11	5.167E-9	   23.5000	   27.8141	    1.1313	    0.0000	
 -135.0000	7.688E-11	5.919E-9	   23.5000	   27.8141	    1.1313	    0.0000	
 -140.0000	7.567E-11	7.022E-9	   23.5000	   27.8141	    1.1313	    0.0000	
 -145.0000	7.512E-11	4.398E-9	   23.5000	   27.8141	    1.1313	    0.0000	
 -150.0000	7.373E-11	2.460E-9	   23.5000	   27.8141	    1.1313	    0.0000	
 -155.0000	7.237E-11	4.701E-9	   23.5000	   27.8141	    1.1313	    0.0000	
 -160.0000	7.186E-11	3.562E-9	   23.5000	   27.8141	    1.1313	    0.0000	
 -165.0000	7.057E-11	7.355E-9	   23.5000	   27.8141	    1.1313	    0.0000	
 -170.0000	6.937E-11	4.064E-9	   23.5000	   27.8141	    1.1313	    0.0000	
 -175.0000	6.848E-11	4.011E-9	   23.5000	   27.8141	    1.1313	    0.0000	
 -180.0000	6.803E-11	1.806E-9	   23.5000	   27.8141	    1.1313	    0.0000	
 -185.0000	6.682E-11	2.279E-9	   23.5000	   27.8141	    1.1313	    0.0000	
 -190.0000	6.652E-11	2.158E-9	   23.5000	   27.8141	    1.1313	    0.0000	
 -195.0000	6.570E-11	1.798E-9	   23.5000	   27.8141	    1.1313	    0.0000	
 -200.0000	6.475E-11	6.540E-9	   23.5000	   27.8141	    1.1313	    0.0000	
 -205.0000	6.391E-11	6.249E-9	   23.5000	   27.8141	    1.1313	    0.0000	
 -210.0000	6.325E-11	3.620E-10	   23.5000	   27.8141	    1.1313	    0.0000	
 -215.0000	6.253E-11	5.492E-9	   23.5000	   27.8141	    1.1313	    0.0000	
 -220.0000	6.144E-11	6.673E-9	   23.5000	   27.8141	    1.1313	    0.0000	
 -225.0000	6.109E-11	6.177E-9	   23.5000	   27.8141	    1.1313	    0.0000	
 -230.0000	5.988E-11	4.439E-9	   23.5000	   27.8141	    1.1313	    0.0000	
 -235.0000	5.977E-11	6.062E-9	   23.5000	   27.8141	    1.1313	    0.0000	
 -240.0000	5.939E-11	-1.116E-10	   23.5000	   27.8141	    1.1313	    0.0000	
 -245.0000	5.868E-11	6.277E-9	   23.5000	   27.8141	    1.1313	    0.0000	
 -250.0000	5.883E-11	3.321E-9	   23.5000	   27.8141	    1.1313	    0.0000	
 -255.0000	5.868E-11	1.905E-9	   23.5000	   27.8141	    1.1313	    0.0000	
 -260.0000	5.787E-11	3.319E-9	   23.5000	   27.8141	    1.1313	    0.0000	
 -265.0000	5.833E-11	4.456E-9	   23.5000	   27.8141	    1.1313	    0.0000	
 -270.0000	5.790E-11	5.453E-9	   23.5000	   27.8141	    1.1313	    0.0000	
 -275.0000	5.837E-11	8.546E-10	   23.5000	   27.8141	    1.1313	    0.0000	
 -280.0000	5.774E-11	2.908E-9	   23.5000	   27.8141	    1.1313	    0.0000	
 -285.0000	5.835E-11	1.573E-9	   23.5000	   27.8141	    1.1313	    0.0000	
 -290.0000	5.802E-11	5.744E-9	   23.5000	   27.8141	    1.1313	    0.0000	
 -295.0000	5.760E-11	4.242E-9	   23.5000	   27.8141	    1.1313	    0.0000	
 -300.0000	5.815E-11	2.041E-9	   23.5000	   27.8141	    1.1313	    0.0000	
 -305.0000	5.825E-11	2.455E-9	   23.5000	   27.8141	    1.1313	    0.0000	
 -310.0000	5.785E-11	4.627E-10	   23.5000	   27.8141	    1.1313	    0.0000	
 -315.0000	5.763E-11	2.024E-9	   23.5000	   27.8141	    1.1313	    0.0000	
 -320.0000	5.765E-11	1.254E-9	   23.5000	   27.8141	    1.1313	    0.0000	
 -325.0000	5.824E-11	2.064E-9	   23.5000	   27.8141	    1.1313	    0.0000	
 -330.0000	5.813E-11	1.154E-9	   23.5000	   27.8141	    1.1313	    0.0000	
 -335.0000	5.752E-11	2.416E-9	   23.5000	   27.8141	    1.1313	    0.0000	
 -340.0000	5.790E-11	5.487E-9	   23.5000	   27.8141	    1.1313	    0.0000	
 -345.0000	5.800E-11	5.581E-9	   23.5000	   27.8141	    1.1313	    0.0000	
 -350.0000	5.774E-11	1.901E-10	   23.5000	   27.8141	    1.1313	    0.0000	
 -355.0000	5.812E-11	2.350E-9	   23.5000	   27.8141	    1.1313	    0.0000	
 -360.0000	5.818E-11	1.087E-9	   23.5000	   27.8141	    1.1313	    0.0000	
 -365.0000	5.798E-11	1.928E-10	   23.5000	   27.8141	    1.1313	    0.0000	
 -370.0000	5.802E-11	3.131E-10	   23.5000	   27.8141	    1.1313	    0.0000	
 -375.0000	5.774E-11	1.901E-10	   23.5000	   27.8141	    1.1313	    0.0000	
 -380.0000	5.800E-11	1.974E-9	   23.5000	   27.8141	    1.1313	    0.0000	
 -385.0000	5.801E-11	2.946E-9	   23.5000	   27.8141	    1.1313	    0.0000	
 -390.0000	5.790E-11	-9.870E-11	   23.5000	   27.8141	    1.1313	    0.0000	
 -395.0000	5.738E-11	2.999E-9	   23.5000	   27.8141	    1.1313	    0.0000	
 -400.0000	5.782E-11	5.455E-9	   23.5000	   27.8141	    1.1313	    0.0000	
 -410.0000	5.804E-11	1.441E-9	   23.5000	   27.8141	    1.1313	    0.0000	
 -420.0000	5.736E-11	4.603E-9	   23.5000	   27.8141	    1.1313	    0.0000	
 -430.0000	5.803E-11	2.156E-9	   23.5000	   27.8141	    1.1313	    0.0000	
 -440.0000	5.787E-11	3.749E-9	   23.5000	   27.8141	    1.1313	    0.0000	
 -450.0000	5.760E-11	1.021E-9	   23.5000	   27.8141	    1.1313	    0.0000	
 -460.0000	5.741E-11	4.957E-9	   23.5000	   27.8141	    1.1313	    0.0000	
 -470.0000	5.781E-11	5.159E-9	   23.5000	   27.8141	    1.1313	    0.0000	
 -480.0000	5.800E-11	3.052E-9	   23.5000	   27.8141	    1.1313	    0.0000	
 -490.0000	5.744E-11	1.834E-9	   23.5000	   27.8141	    1.1313	    0.0000	
 -500.0000	5.742E-11	1.895E-9	   23.5000	   27.8141	    1.1313	    0.0000	
 -510.0000	5.729E-11	4.711E-9	   23.5000	   27.8141	    1.1313	    0.0000	
 -520.0000	5.790E-11	1.957E-9	   23.5000	   27.8141	    1.1313	    0.0000	
 -530.0000	5.791E-11	2.645E-9	   23.5000	   27.8141	    1.1313	    0.0000	
 -540.0000	5.762E-11	1.969E-10	   23.5000	   27.8141	    1.1313	    0.0000	
 -550.0000	5.724E-11	3.078E-9	   23.5000	   27.8141	    1.1313	    0.0000	
 -560.0000	5.797E-11	2.215E-9	   23.5000	   27.8141	    1.1313	    0.0000	
 -570.0000	5.750E-11	6.090E-9	   23.5000	   27.8141	    1.1313	    0.0000	
 -580.0000	5.751E-11	5.432E-9	   23.5000	   27.8141	    1.1313	    0.0000	
 -590.0000	5.760E-11	5.594E-9	   23.5000	   27.8141	    1.1313	    0.0000	
 -600.0000	5.743E-11	5.853E-9	   23.5000	   27.8141	    1.1313	    0.0000	
