GCD Test
Bias: 5000.000000
IV_38873_003_2-S_HM_XX_DIODEHALFPSTOP_GR
Date/Time: 3/9/2022 5:17:35 PM
Sensor Name: 
Type: P
Annealing Status: Unirradiated
Environment: 20C
Tester: Andrew Kent

Time Delay per Ramp Step (s): 0.500

CV Time Delay per Measurement (s) :0.500

AC Voltage (V): 0.500

Current Number of measurements per voltage: 1.000

IV Time Delay per Measurement (s) :0.000


BiasVoltage	Total Current_Avg	Total Current_0	Bias Current_Avg	Bias Current_0	Temperature	Air_Temp	Humidity	Dewpoint	
  -10.0000	2.8400E-10	2.8400E-10	-1.571454E-11	-1.571454E-11	   19.9987	   21.6929	   19.0424	   -2.8449	
  -20.0000	2.4900E-10	2.4900E-10	-1.798531E-11	-1.798531E-11	   19.9987	   21.6810	   19.0424	   -2.8985	
  -30.0000	2.4800E-10	2.4800E-10	-1.890813E-11	-1.890813E-11	   19.9936	   21.6818	   18.9839	   -2.9392	
  -40.0000	1.2900E-10	1.2900E-10	-1.988716E-11	-1.988716E-11	   19.9936	   21.6873	   18.9409	   -2.9651	
  -50.0000	7.8000E-11	7.8000E-11	-2.091672E-11	-2.091672E-11	   19.9910	   21.6853	   18.8944	   -2.9997	
  -60.0000	-2.0000E-11	-2.0000E-11	-2.162645E-11	-2.162645E-11	   19.9936	   21.6812	   18.8504	   -3.0343	
  -70.0000	-1.3200E-10	-1.3200E-10	-2.228709E-11	-2.228709E-11	   19.9961	   21.6817	   18.8280	   -3.0499	
  -80.0000	-8.3000E-11	-8.3000E-11	-2.251524E-11	-2.251524E-11	   19.9987	   21.6817	   18.7821	   -3.0499	
  -90.0000	-1.6700E-10	-1.6700E-10	-2.371450E-11	-2.371450E-11	   19.9987	   21.6884	   18.7821	   -3.0771	
 -100.0000	-1.5300E-10	-1.5300E-10	-2.450796E-11	-2.450796E-11	   20.0039	   21.6884	   18.7404	   -3.0771	
 -110.0000	-1.4800E-10	-1.4800E-10	-2.529529E-11	-2.529529E-11	   20.0064	   21.6823	   18.7296	   -3.1119	
 -120.0000	-2.0800E-10	-2.0800E-10	-2.623543E-11	-2.623543E-11	   20.0064	   21.6835	   18.7296	   -3.1186	
 -130.0000	-2.0200E-10	-2.0200E-10	-2.705577E-11	-2.705577E-11	   20.0090	   21.6762	   18.6945	   -3.1354	
 -140.0000	-2.4300E-10	-2.4300E-10	-2.780482E-11	-2.780482E-11	   20.0090	   21.6762	   18.7056	   -3.1497	
 -150.0000	-3.4400E-10	-3.4400E-10	-2.956468E-11	-2.956468E-11	   20.0039	   21.6885	   18.6948	   -3.1317	
 -160.0000	-2.6300E-10	-2.6300E-10	-3.228056E-11	-3.228056E-11	   20.0039	   21.6864	   18.6948	   -3.1411	
 -170.0000	-2.8700E-10	-2.8700E-10	-3.635782E-11	-3.635782E-11	   20.0039	   21.6833	   18.6825	   -3.1525	
 -180.0000	-3.9400E-10	-3.9400E-10	-4.039724E-11	-4.039724E-11	   20.0013	   21.6888	   18.6860	   -3.1455	
 -190.0000	-4.4000E-10	-4.4000E-10	-4.533398E-11	-4.533398E-11	   19.9987	   21.6849	   18.6793	   -3.1535	
 -200.0000	-3.6800E-10	-3.6800E-10	-4.844322E-11	-4.844322E-11	   19.9987	   21.6863	   18.6809	   -3.1512	
 -210.0000	-4.7700E-10	-4.7700E-10	-5.073599E-11	-5.073599E-11	   19.9961	   21.6859	   18.6765	   -3.1547	
 -220.0000	-4.3400E-10	-4.3400E-10	-5.236773E-11	-5.236773E-11	   19.9961	   21.6864	   18.6752	   -3.1552	
 -230.0000	-4.2400E-10	-4.2400E-10	-5.449447E-11	-5.449447E-11	   19.9961	   21.6795	   18.6863	   -3.1529	
 -240.0000	-4.7100E-10	-4.7100E-10	-5.573854E-11	-5.573854E-11	   19.9961	   21.6824	   18.6657	   -3.1652	
 -250.0000	-4.7100E-10	-4.7100E-10	-5.644827E-11	-5.644827E-11	   19.9987	   21.6871	   18.6812	   -3.1503	
 -260.0000	-5.1000E-10	-5.1000E-10	-5.747763E-11	-5.747763E-11	   20.0013	   21.6872	   18.6752	   -3.1545	
 -270.0000	-5.0300E-10	-5.0300E-10	-5.858296E-11	-5.858296E-11	   20.0039	   21.6872	   18.6850	   -3.1545	
 -280.0000	-5.4700E-10	-5.4700E-10	-5.942344E-11	-5.942344E-11	   20.0064	   21.6881	   18.6850	   -3.1467	
 -290.0000	-6.2400E-10	-6.2400E-10	-6.022325E-11	-6.022325E-11	   20.0064	   21.6885	   18.6894	   -3.1412	
 -300.0000	-6.2600E-10	-6.2600E-10	-6.065960E-11	-6.065960E-11	   20.0064	   21.6885	   18.7034	   -3.1433	
 -310.0000	-6.3800E-10	-6.3800E-10	-6.130170E-11	-6.130170E-11	   20.0064	   21.6908	   18.6866	   -3.1314	
 -320.0000	-5.9000E-10	-5.9000E-10	-6.187471E-11	-6.187471E-11	   20.0039	   21.6931	   18.6879	   -3.1415	
 -330.0000	-7.2400E-10	-7.2400E-10	-6.262764E-11	-6.262764E-11	   20.0013	   21.6895	   18.6812	   -3.1436	
 -340.0000	-7.2600E-10	-7.2600E-10	-6.251010E-11	-6.251010E-11	   20.0013	   21.6899	   18.6812	   -3.1480	
 -350.0000	-7.3500E-10	-7.3500E-10	-6.336345E-11	-6.336345E-11	   19.9987	   21.6892	   18.6834	   -3.1470	
 -360.0000	-7.7500E-10	-7.7500E-10	-6.350095E-11	-6.350095E-11	   19.9961	   21.6907	   18.6762	   -3.1510	
 -370.0000	-7.9100E-10	-7.9100E-10	-6.437916E-11	-6.437916E-11	   19.9936	   21.6951	   18.6847	   -3.1412	
 -380.0000	-8.0000E-10	-8.0000E-10	-6.478617E-11	-6.478617E-11	   19.9910	   21.6834	   18.6999	   -3.1400	
 -390.0000	-7.0200E-10	-7.0200E-10	-6.543825E-11	-6.543825E-11	   19.9936	   21.6889	   18.6863	   -3.1452	
 -400.0000	-8.1400E-10	-8.1400E-10	-6.609948E-11	-6.609948E-11	   19.9936	   21.6895	   18.6796	   -3.1495	
 -420.0000	-9.5300E-10	-9.5300E-10	-6.682287E-11	-6.682287E-11	   19.9961	   21.6872	   18.6882	   -3.1452	
 -440.0000	-1.0420E-9	-1.0420E-9	-6.770821E-11	-6.770821E-11	   19.9987	   21.6875	   18.6809	   -3.1502	
 -460.0000	-1.0630E-9	-1.0630E-9	-6.892845E-11	-6.892845E-11	   20.0013	   21.6872	   18.6894	   -3.1443	
 -480.0000	-1.1190E-9	-1.1190E-9	-6.970233E-11	-6.970233E-11	   20.0039	   21.6884	   18.6885	   -3.1440	
 -500.0000	-1.1540E-9	-1.1540E-9	-7.014823E-11	-7.014823E-11	   20.0039	   21.6916	   18.6872	   -3.1423	
 -520.0000	-1.1560E-9	-1.1560E-9	-7.091219E-11	-7.091219E-11	   20.0090	   21.6915	   18.6879	   -3.1419	
 -540.0000	-1.3240E-9	-1.3240E-9	-7.152269E-11	-7.152269E-11	   20.0064	   21.6915	   18.6866	   -3.1419	
 -560.0000	-1.2760E-9	-1.2760E-9	-7.162617E-11	-7.162617E-11	   20.0064	   21.6873	   18.6866	   -3.1463	
 -580.0000	-1.2680E-9	-1.2680E-9	-7.310673E-11	-7.310673E-11	   20.0064	   21.6914	   18.6888	   -3.1413	
 -600.0000	-1.3990E-9	-1.3990E-9	-7.371279E-11	-7.371279E-11	   20.0064	   21.6914	   18.6904	   -3.1402	
 -620.0000	-1.3840E-9	-1.3840E-9	-7.425384E-11	-7.425384E-11	   20.0039	   21.6942	   18.7030	   -3.1288	
 -640.0000	-1.4700E-9	-1.4700E-9	-7.443678E-11	-7.443678E-11	   20.0039	   21.6913	   18.6958	   -3.1365	
 -660.0000	-1.4900E-9	-1.4900E-9	-7.532858E-11	-7.532858E-11	   20.0013	   21.6913	   18.7046	   -3.1365	
 -680.0000	-1.5850E-9	-1.5850E-9	-7.594421E-11	-7.594421E-11	   20.0013	   21.6920	   18.7046	   -3.1295	
 -700.0000	-1.7510E-9	-1.7510E-9	-7.716465E-11	-7.716465E-11	   19.9961	   21.6931	   18.7008	   -3.1314	
 -720.0000	-1.6340E-9	-1.6340E-9	-7.686968E-11	-7.686968E-11	   19.9936	   21.6931	   18.7065	   -3.1314	
 -740.0000	-1.6130E-9	-1.6130E-9	-7.756232E-11	-7.756232E-11	   19.9936	   21.6931	   18.7065	   -3.1273	
 -760.0000	-1.7010E-9	-1.7010E-9	-7.782044E-11	-7.782044E-11	   19.9936	   21.6850	   18.7002	   -3.1385	
 -780.0000	-1.8050E-9	-1.8050E-9	-7.911176E-11	-7.911176E-11	   19.9936	   21.6823	   18.7062	   -3.1363	
 -800.0000	-1.7430E-9	-1.7430E-9	-7.958659E-11	-7.958659E-11	   19.9936	   21.6823	   18.6951	   -3.1363	
 -820.0000	-1.7490E-9	-1.7490E-9	-7.979011E-11	-7.979011E-11	   19.9936	   21.6823	   18.6951	   -3.1442	
 -840.0000	-1.7830E-9	-1.7830E-9	-8.083477E-11	-8.083477E-11	   19.9936	   21.6842	   18.6866	   -3.1488	
 -860.0000	-1.8350E-9	-1.8350E-9	-8.064649E-11	-8.064649E-11	   19.9987	   21.6854	   18.6806	   -3.1522	
 -880.0000	-1.8800E-9	-1.8800E-9	-8.133239E-11	-8.133239E-11	   20.0039	   21.6861	   18.6730	   -3.1570	
 -900.0000	-1.9320E-9	-1.9320E-9	-8.166749E-11	-8.166749E-11	   20.0039	   21.6861	   18.6730	   -3.1570	
 -920.0000	-2.0000E-9	-2.0000E-9	-8.245830E-11	-8.245830E-11	   20.0039	   21.6886	   18.6698	   -3.1572	
 -940.0000	-2.0340E-9	-2.0340E-9	-8.283212E-11	-8.283212E-11	   20.0064	   21.6856	   18.6654	   -3.1629	
 -960.0000	-2.0120E-9	-2.0120E-9	-8.347825E-11	-8.347825E-11	   20.0090	   21.6856	   18.6581	   -3.1629	
 -980.0000	-2.0560E-9	-2.0560E-9	-8.416296E-11	-8.416296E-11	   20.0090	   21.6882	   18.6581	   -3.1660	
-1000.0000	-2.1760E-9	-2.1760E-9	-8.461864E-11	-8.461864E-11	   20.0064	   21.6936	   18.6534	   -3.1649	
