34254_041_PSS_HM_XX_IrradSensor_Interstrip
Date/Time: 4/21/2021 2:39:43 PM
Sensor Name: 34254_041_PSS_HM_XX_IrradSensor
Type: P
Annealing Status: Not Irradiated
Environment: RT
Tester: Eric Spencer
Notes: 

Time Delay per Ramp Step (s): 0.500

CV Time Delay per Measurement (s) :0.500

AC Voltage (V): 0.500

Current Number of measurements per voltage: 4.000

IV Time Delay per Measurement (s) :0.500


BiasVoltage	Bias Current_Avg	Bias Current_0	Bias Current_1	Bias Current_2	Bias Current_3	Temperature	Air_Temp	Humidity	Dewpoint	
   -5.0000	-1.8290E-9	-1.8290E-9	-1.8290E-9	-1.8290E-9	-1.8290E-9	   27.4523	   26.5714	    5.7311	    0.0000	
  -10.0000	-2.0690E-9	-2.0690E-9	-2.0690E-9	-2.0690E-9	-2.0690E-9	   27.4523	   26.5714	    5.7311	    0.0000	
  -15.0000	-2.2990E-9	-2.2990E-9	-2.2990E-9	-2.2990E-9	-2.2990E-9	   27.4523	   26.5714	    5.7311	    0.0000	
  -20.0000	-2.5150E-9	-2.5150E-9	-2.5150E-9	-2.5150E-9	-2.5150E-9	   27.4523	   26.5714	    5.7311	    0.0000	
  -25.0000	-2.6650E-9	-2.6650E-9	-2.6650E-9	-2.6650E-9	-2.6650E-9	   27.4523	   26.5714	    5.7311	    0.0000	
  -30.0000	-2.7530E-9	-2.7530E-9	-2.7530E-9	-2.7530E-9	-2.7530E-9	   27.4523	   26.5714	    5.7311	    0.0000	
  -35.0000	-2.8620E-9	-2.8620E-9	-2.8620E-9	-2.8620E-9	-2.8620E-9	   27.4523	   26.5714	    5.7311	    0.0000	
  -40.0000	-2.9480E-9	-2.9480E-9	-2.9480E-9	-2.9480E-9	-2.9480E-9	   27.4523	   26.5714	    5.7311	    0.0000	
  -45.0000	-3.0200E-9	-3.0200E-9	-3.0200E-9	-3.0200E-9	-3.0200E-9	   27.4523	   26.5714	    5.7311	    0.0000	
  -50.0000	-3.0780E-9	-3.0780E-9	-3.0780E-9	-3.0780E-9	-3.0780E-9	   27.4523	   26.5714	    5.7311	    0.0000	
  -55.0000	-3.1070E-9	-3.1070E-9	-3.1070E-9	-3.1070E-9	-3.1070E-9	   27.4523	   26.5714	    5.7311	    0.0000	
  -60.0000	-3.1310E-9	-3.1310E-9	-3.1310E-9	-3.1310E-9	-3.1310E-9	   27.4523	   26.5714	    5.7311	    0.0000	
  -65.0000	-3.1710E-9	-3.1710E-9	-3.1710E-9	-3.1710E-9	-3.1710E-9	   27.4523	   26.5714	    5.7311	    0.0000	
  -70.0000	-3.2050E-9	-3.2050E-9	-3.2050E-9	-3.2050E-9	-3.2050E-9	   27.4523	   26.5714	    5.7311	    0.0000	
  -75.0000	-3.2210E-9	-3.2210E-9	-3.2210E-9	-3.2210E-9	-3.2210E-9	   27.4523	   26.5714	    5.7311	    0.0000	
  -80.0000	-3.2380E-9	-3.2380E-9	-3.2380E-9	-3.2380E-9	-3.2380E-9	   27.4523	   26.5714	    5.7311	    0.0000	
  -85.0000	-3.2530E-9	-3.2530E-9	-3.2530E-9	-3.2530E-9	-3.2530E-9	   27.4523	   26.5714	    5.7311	    0.0000	
  -90.0000	-3.2570E-9	-3.2570E-9	-3.2570E-9	-3.2570E-9	-3.2570E-9	   27.4523	   26.5714	    5.7311	    0.0000	
  -95.0000	-3.2720E-9	-3.2720E-9	-3.2720E-9	-3.2720E-9	-3.2720E-9	   27.4523	   26.5714	    5.7311	    0.0000	
 -100.0000	-3.2800E-9	-3.2800E-9	-3.2800E-9	-3.2800E-9	-3.2800E-9	   27.4523	   26.5714	    5.7311	    0.0000	
 -105.0000	-3.2990E-9	-3.2990E-9	-3.2990E-9	-3.2990E-9	-3.2990E-9	   27.4523	   26.5714	    5.7311	    0.0000	
 -110.0000	-3.3090E-9	-3.3090E-9	-3.3090E-9	-3.3090E-9	-3.3090E-9	   27.4523	   26.5714	    5.7311	    0.0000	
 -115.0000	-3.3120E-9	-3.3120E-9	-3.3120E-9	-3.3120E-9	-3.3120E-9	   27.4523	   26.5714	    5.7311	    0.0000	
 -120.0000	-3.3180E-9	-3.3180E-9	-3.3180E-9	-3.3180E-9	-3.3180E-9	   27.4523	   26.5714	    5.7311	    0.0000	
 -125.0000	-3.3260E-9	-3.3260E-9	-3.3260E-9	-3.3260E-9	-3.3260E-9	   27.4523	   26.5714	    5.7311	    0.0000	
 -130.0000	-3.3360E-9	-3.3360E-9	-3.3360E-9	-3.3360E-9	-3.3360E-9	   27.4523	   26.5714	    5.7311	    0.0000	
 -135.0000	-3.3480E-9	-3.3480E-9	-3.3480E-9	-3.3480E-9	-3.3480E-9	   27.4523	   26.5714	    5.7311	    0.0000	
 -140.0000	-3.3410E-9	-3.3410E-9	-3.3410E-9	-3.3410E-9	-3.3410E-9	   27.4523	   26.5714	    5.7311	    0.0000	
 -145.0000	-3.3490E-9	-3.3490E-9	-3.3490E-9	-3.3490E-9	-3.3490E-9	   27.4523	   26.5714	    5.7311	    0.0000	
 -150.0000	-3.3510E-9	-3.3510E-9	-3.3510E-9	-3.3510E-9	-3.3510E-9	   27.4523	   26.5714	    5.7311	    0.0000	
 -155.0000	-3.3530E-9	-3.3530E-9	-3.3530E-9	-3.3530E-9	-3.3530E-9	   27.4523	   26.5714	    5.7311	    0.0000	
 -160.0000	-3.3520E-9	-3.3520E-9	-3.3520E-9	-3.3520E-9	-3.3520E-9	   27.4523	   26.5714	    5.7311	    0.0000	
 -165.0000	-3.3540E-9	-3.3540E-9	-3.3540E-9	-3.3540E-9	-3.3540E-9	   27.4523	   26.5714	    5.7311	    0.0000	
 -170.0000	-3.3600E-9	-3.3600E-9	-3.3600E-9	-3.3600E-9	-3.3600E-9	   27.4523	   26.5714	    5.7311	    0.0000	
 -175.0000	-3.3620E-9	-3.3620E-9	-3.3620E-9	-3.3620E-9	-3.3620E-9	   27.4523	   26.5714	    5.7311	    0.0000	
 -180.0000	-3.3660E-9	-3.3660E-9	-3.3660E-9	-3.3660E-9	-3.3660E-9	   27.4523	   26.5714	    5.7311	    0.0000	
 -185.0000	-3.3700E-9	-3.3700E-9	-3.3700E-9	-3.3700E-9	-3.3700E-9	   27.4523	   26.5714	    5.7311	    0.0000	
 -190.0000	-3.3740E-9	-3.3740E-9	-3.3740E-9	-3.3740E-9	-3.3740E-9	   27.4523	   26.5714	    5.7311	    0.0000	
 -195.0000	-3.3840E-9	-3.3840E-9	-3.3840E-9	-3.3840E-9	-3.3840E-9	   27.4523	   26.5714	    5.7311	    0.0000	
 -200.0000	-3.3900E-9	-3.3900E-9	-3.3900E-9	-3.3900E-9	-3.3900E-9	   27.4523	   26.5714	    5.7311	    0.0000	
 -205.0000	-3.3960E-9	-3.3960E-9	-3.3960E-9	-3.3960E-9	-3.3960E-9	   27.4523	   26.5714	    5.7311	    0.0000	
 -210.0000	-3.4070E-9	-3.4070E-9	-3.4070E-9	-3.4070E-9	-3.4070E-9	   27.4523	   26.5714	    5.7311	    0.0000	
 -215.0000	-3.4130E-9	-3.4130E-9	-3.4130E-9	-3.4130E-9	-3.4130E-9	   27.4523	   26.5714	    5.7311	    0.0000	
 -220.0000	-3.4270E-9	-3.4270E-9	-3.4270E-9	-3.4270E-9	-3.4270E-9	   27.4523	   26.5714	    5.7311	    0.0000	
 -225.0000	-3.4340E-9	-3.4340E-9	-3.4340E-9	-3.4340E-9	-3.4340E-9	   27.4523	   26.5714	    5.7311	    0.0000	
 -230.0000	-3.4430E-9	-3.4430E-9	-3.4430E-9	-3.4430E-9	-3.4430E-9	   27.4523	   26.5714	    5.7311	    0.0000	
 -235.0000	-3.4500E-9	-3.4500E-9	-3.4500E-9	-3.4500E-9	-3.4500E-9	   27.4523	   26.5714	    5.7311	    0.0000	
 -240.0000	-3.4650E-9	-3.4650E-9	-3.4650E-9	-3.4650E-9	-3.4650E-9	   27.4523	   26.5714	    5.7311	    0.0000	
 -245.0000	-3.4790E-9	-3.4790E-9	-3.4790E-9	-3.4790E-9	-3.4790E-9	   27.4523	   26.5714	    5.7311	    0.0000	
 -250.0000	-3.4980E-9	-3.4980E-9	-3.4980E-9	-3.4980E-9	-3.4980E-9	   27.4523	   26.5714	    5.7311	    0.0000	
 -255.0000	-3.5080E-9	-3.5080E-9	-3.5080E-9	-3.5080E-9	-3.5080E-9	   27.4523	   26.5714	    5.7311	    0.0000	
 -260.0000	-3.5220E-9	-3.5220E-9	-3.5220E-9	-3.5220E-9	-3.5220E-9	   27.4523	   26.5714	    5.7311	    0.0000	
 -265.0000	-3.5340E-9	-3.5340E-9	-3.5340E-9	-3.5340E-9	-3.5340E-9	   27.4523	   26.5714	    5.7311	    0.0000	
 -270.0000	-3.5470E-9	-3.5470E-9	-3.5470E-9	-3.5470E-9	-3.5470E-9	   27.4523	   26.5714	    5.7311	    0.0000	
 -275.0000	-3.5680E-9	-3.5680E-9	-3.5680E-9	-3.5680E-9	-3.5680E-9	   27.4523	   26.5714	    5.7311	    0.0000	
 -280.0000	-3.5770E-9	-3.5770E-9	-3.5770E-9	-3.5770E-9	-3.5770E-9	   27.4523	   26.5714	    5.7311	    0.0000	
 -285.0000	-3.5900E-9	-3.5900E-9	-3.5900E-9	-3.5900E-9	-3.5900E-9	   27.4523	   26.5714	    5.7311	    0.0000	
 -290.0000	-3.6020E-9	-3.6020E-9	-3.6020E-9	-3.6020E-9	-3.6020E-9	   27.4523	   26.5714	    5.7311	    0.0000	
 -295.0000	-3.6080E-9	-3.6080E-9	-3.6080E-9	-3.6080E-9	-3.6080E-9	   27.4523	   26.5714	    5.7311	    0.0000	
 -300.0000	-3.6180E-9	-3.6180E-9	-3.6180E-9	-3.6180E-9	-3.6180E-9	   27.4523	   26.5714	    5.7311	    0.0000	
 -305.0000	-3.6250E-9	-3.6250E-9	-3.6250E-9	-3.6250E-9	-3.6250E-9	   27.4523	   26.5714	    5.7311	    0.0000	
 -310.0000	-3.6250E-9	-3.6250E-9	-3.6250E-9	-3.6250E-9	-3.6250E-9	   27.4523	   26.5714	    5.7311	    0.0000	
 -315.0000	-3.6360E-9	-3.6360E-9	-3.6360E-9	-3.6360E-9	-3.6360E-9	   27.4523	   26.5714	    5.7311	    0.0000	
 -320.0000	-3.6420E-9	-3.6420E-9	-3.6420E-9	-3.6420E-9	-3.6420E-9	   27.4523	   26.5714	    5.7311	    0.0000	
 -325.0000	-3.6460E-9	-3.6460E-9	-3.6460E-9	-3.6460E-9	-3.6460E-9	   27.4523	   26.5714	    5.7311	    0.0000	
 -330.0000	-3.6550E-9	-3.6550E-9	-3.6550E-9	-3.6550E-9	-3.6550E-9	   27.4523	   26.5714	    5.7311	    0.0000	
 -335.0000	-3.6650E-9	-3.6650E-9	-3.6650E-9	-3.6650E-9	-3.6650E-9	   27.4523	   26.5714	    5.7311	    0.0000	
 -340.0000	-3.6630E-9	-3.6630E-9	-3.6630E-9	-3.6630E-9	-3.6630E-9	   27.4523	   26.5714	    5.7311	    0.0000	
 -345.0000	-3.6710E-9	-3.6710E-9	-3.6710E-9	-3.6710E-9	-3.6710E-9	   27.4523	   26.5714	    5.7311	    0.0000	
 -350.0000	-3.6750E-9	-3.6750E-9	-3.6750E-9	-3.6750E-9	-3.6750E-9	   27.4523	   26.5714	    5.7311	    0.0000	
 -355.0000	-3.6780E-9	-3.6780E-9	-3.6780E-9	-3.6780E-9	-3.6780E-9	   27.4523	   26.5714	    5.7311	    0.0000	
 -360.0000	-3.6820E-9	-3.6820E-9	-3.6820E-9	-3.6820E-9	-3.6820E-9	   27.4523	   26.5714	    5.7311	    0.0000	
 -365.0000	-3.6860E-9	-3.6860E-9	-3.6860E-9	-3.6860E-9	-3.6860E-9	   27.4523	   26.5714	    5.7311	    0.0000	
 -370.0000	-3.6920E-9	-3.6920E-9	-3.6920E-9	-3.6920E-9	-3.6920E-9	   27.4523	   26.5714	    5.7311	    0.0000	
 -375.0000	-3.6980E-9	-3.6980E-9	-3.6980E-9	-3.6980E-9	-3.6980E-9	   27.4523	   26.5714	    5.7311	    0.0000	
 -380.0000	-3.7000E-9	-3.7000E-9	-3.7000E-9	-3.7000E-9	-3.7000E-9	   27.4523	   26.5714	    5.7311	    0.0000	
 -385.0000	-3.7000E-9	-3.7000E-9	-3.7000E-9	-3.7000E-9	-3.7000E-9	   27.4523	   26.5714	    5.7311	    0.0000	
 -390.0000	-3.7120E-9	-3.7120E-9	-3.7120E-9	-3.7120E-9	-3.7120E-9	   27.4523	   26.5714	    5.7311	    0.0000	
 -395.0000	-3.7180E-9	-3.7180E-9	-3.7180E-9	-3.7180E-9	-3.7180E-9	   27.4523	   26.5714	    5.7311	    0.0000	
 -400.0000	-3.7210E-9	-3.7210E-9	-3.7210E-9	-3.7210E-9	-3.7210E-9	   27.4523	   26.5714	    5.7311	    0.0000	
 -410.0000	-3.7280E-9	-3.7280E-9	-3.7280E-9	-3.7280E-9	-3.7280E-9	   27.4523	   26.5714	    5.7311	    0.0000	
 -420.0000	-3.7370E-9	-3.7370E-9	-3.7370E-9	-3.7370E-9	-3.7370E-9	   27.4523	   26.5714	    5.7311	    0.0000	
 -430.0000	-3.7470E-9	-3.7470E-9	-3.7470E-9	-3.7470E-9	-3.7470E-9	   27.4523	   26.5714	    5.7311	    0.0000	
 -440.0000	-3.7520E-9	-3.7520E-9	-3.7520E-9	-3.7520E-9	-3.7520E-9	   27.4523	   26.5714	    5.7311	    0.0000	
 -450.0000	-3.7590E-9	-3.7590E-9	-3.7590E-9	-3.7590E-9	-3.7590E-9	   27.4523	   26.5714	    5.7311	    0.0000	
 -460.0000	-3.7670E-9	-3.7670E-9	-3.7670E-9	-3.7670E-9	-3.7670E-9	   27.4523	   26.5714	    5.7311	    0.0000	
 -470.0000	-3.7760E-9	-3.7760E-9	-3.7760E-9	-3.7760E-9	-3.7760E-9	   27.4523	   26.5714	    5.7311	    0.0000	
 -480.0000	-3.7890E-9	-3.7890E-9	-3.7890E-9	-3.7890E-9	-3.7890E-9	   27.4523	   26.5714	    5.7311	    0.0000	
 -490.0000	-3.7930E-9	-3.7930E-9	-3.7930E-9	-3.7930E-9	-3.7930E-9	   27.4523	   26.5714	    5.7311	    0.0000	
 -500.0000	-3.7990E-9	-3.7990E-9	-3.7990E-9	-3.7990E-9	-3.7990E-9	   27.4523	   26.5714	    5.7311	    0.0000	
 -510.0000	-3.8040E-9	-3.8040E-9	-3.8040E-9	-3.8040E-9	-3.8040E-9	   27.4523	   26.5714	    5.7311	    0.0000	
 -520.0000	-3.8170E-9	-3.8170E-9	-3.8170E-9	-3.8170E-9	-3.8170E-9	   27.4523	   26.5714	    5.7311	    0.0000	
 -530.0000	-3.8210E-9	-3.8210E-9	-3.8210E-9	-3.8210E-9	-3.8210E-9	   27.4523	   26.5714	    5.7311	    0.0000	
 -540.0000	-3.8290E-9	-3.8290E-9	-3.8290E-9	-3.8290E-9	-3.8290E-9	   27.4523	   26.5714	    5.7311	    0.0000	
 -550.0000	-3.8320E-9	-3.8320E-9	-3.8320E-9	-3.8320E-9	-3.8320E-9	   27.4523	   26.5714	    5.7311	    0.0000	
 -560.0000	-3.8430E-9	-3.8430E-9	-3.8430E-9	-3.8430E-9	-3.8430E-9	   27.4523	   26.5714	    5.7311	    0.0000	
 -570.0000	-3.8500E-9	-3.8500E-9	-3.8500E-9	-3.8500E-9	-3.8500E-9	   27.4523	   26.5714	    5.7311	    0.0000	
 -580.0000	-3.8610E-9	-3.8610E-9	-3.8610E-9	-3.8610E-9	-3.8610E-9	   27.4523	   26.5714	    5.7311	    0.0000	
 -590.0000	-3.8620E-9	-3.8620E-9	-3.8620E-9	-3.8620E-9	-3.8620E-9	   27.4523	   26.5714	    5.7311	    0.0000	
 -600.0000	-3.8760E-9	-3.8760E-9	-3.8760E-9	-3.8760E-9	-3.8760E-9	   27.4523	   26.5714	    5.7311	    0.0000	
 -610.0000	-3.8810E-9	-3.8810E-9	-3.8810E-9	-3.8810E-9	-3.8810E-9	   27.4523	   26.5714	    5.7311	    0.0000	
 -620.0000	-3.8850E-9	-3.8850E-9	-3.8850E-9	-3.8850E-9	-3.8850E-9	   27.4523	   26.5714	    5.7311	    0.0000	
 -630.0000	-3.8910E-9	-3.8910E-9	-3.8910E-9	-3.8910E-9	-3.8910E-9	   27.4523	   26.5714	    5.7311	    0.0000	
 -640.0000	-3.9020E-9	-3.9020E-9	-3.9020E-9	-3.9020E-9	-3.9020E-9	   27.4523	   26.5714	    5.7311	    0.0000	
 -650.0000	-3.9110E-9	-3.9110E-9	-3.9110E-9	-3.9110E-9	-3.9110E-9	   27.4523	   26.5714	    5.7311	    0.0000	
 -660.0000	-3.9170E-9	-3.9170E-9	-3.9170E-9	-3.9170E-9	-3.9170E-9	   27.4523	   26.5714	    5.7311	    0.0000	
 -670.0000	-3.9180E-9	-3.9180E-9	-3.9180E-9	-3.9180E-9	-3.9180E-9	   27.4523	   26.5714	    5.7311	    0.0000	
 -680.0000	-3.9290E-9	-3.9290E-9	-3.9290E-9	-3.9290E-9	-3.9290E-9	   27.4523	   26.5714	    5.7311	    0.0000	
 -690.0000	-3.9330E-9	-3.9330E-9	-3.9330E-9	-3.9330E-9	-3.9330E-9	   27.4523	   26.5714	    5.7311	    0.0000	
 -700.0000	-3.9480E-9	-3.9480E-9	-3.9480E-9	-3.9480E-9	-3.9480E-9	   27.4523	   26.5714	    5.7311	    0.0000	
 -710.0000	-3.9500E-9	-3.9500E-9	-3.9500E-9	-3.9500E-9	-3.9500E-9	   27.4523	   26.5714	    5.7311	    0.0000	
 -720.0000	-3.9570E-9	-3.9570E-9	-3.9570E-9	-3.9570E-9	-3.9570E-9	   27.4523	   26.5714	    5.7311	    0.0000	
 -730.0000	-3.9650E-9	-3.9650E-9	-3.9650E-9	-3.9650E-9	-3.9650E-9	   27.4523	   26.5714	    5.7311	    0.0000	
 -740.0000	-3.9770E-9	-3.9770E-9	-3.9770E-9	-3.9770E-9	-3.9770E-9	   27.4523	   26.5714	    5.7311	    0.0000	
 -750.0000	-3.9850E-9	-3.9850E-9	-3.9850E-9	-3.9850E-9	-3.9850E-9	   27.4523	   26.5714	    5.7311	    0.0000	
 -760.0000	-3.9980E-9	-3.9980E-9	-3.9980E-9	-3.9980E-9	-3.9980E-9	   27.4523	   26.5714	    5.7311	    0.0000	
 -770.0000	-4.0030E-9	-4.0030E-9	-4.0030E-9	-4.0030E-9	-4.0030E-9	   27.4523	   26.5714	    5.7311	    0.0000	
 -780.0000	-4.0150E-9	-4.0150E-9	-4.0150E-9	-4.0150E-9	-4.0150E-9	   27.4523	   26.5714	    5.7311	    0.0000	
 -790.0000	-4.0220E-9	-4.0220E-9	-4.0220E-9	-4.0220E-9	-4.0220E-9	   27.4523	   26.5714	    5.7311	    0.0000	
 -800.0000	-4.0310E-9	-4.0310E-9	-4.0310E-9	-4.0310E-9	-4.0310E-9	   27.4523	   26.5714	    5.7311	    0.0000	
 -810.0000	-4.0390E-9	-4.0390E-9	-4.0390E-9	-4.0390E-9	-4.0390E-9	   27.4523	   26.5714	    5.7311	    0.0000	
 -820.0000	-4.0520E-9	-4.0520E-9	-4.0520E-9	-4.0520E-9	-4.0520E-9	   27.4523	   26.5714	    5.7311	    0.0000	
 -830.0000	-4.0600E-9	-4.0600E-9	-4.0600E-9	-4.0600E-9	-4.0600E-9	   27.4523	   26.5714	    5.7311	    0.0000	
 -840.0000	-4.0720E-9	-4.0720E-9	-4.0720E-9	-4.0720E-9	-4.0720E-9	   27.4523	   26.5714	    5.7311	    0.0000	
 -850.0000	-4.0820E-9	-4.0820E-9	-4.0820E-9	-4.0820E-9	-4.0820E-9	   27.4523	   26.5714	    5.7311	    0.0000	
 -860.0000	-4.0970E-9	-4.0970E-9	-4.0970E-9	-4.0970E-9	-4.0970E-9	   27.4523	   26.5714	    5.7311	    0.0000	
 -870.0000	-4.1080E-9	-4.1080E-9	-4.1080E-9	-4.1080E-9	-4.1080E-9	   27.4523	   26.5714	    5.7311	    0.0000	
 -880.0000	-4.1230E-9	-4.1230E-9	-4.1230E-9	-4.1230E-9	-4.1230E-9	   27.4523	   26.5714	    5.7311	    0.0000	
 -890.0000	-4.1350E-9	-4.1350E-9	-4.1350E-9	-4.1350E-9	-4.1350E-9	   27.4523	   26.5714	    5.7311	    0.0000	
 -900.0000	-4.1510E-9	-4.1510E-9	-4.1510E-9	-4.1510E-9	-4.1510E-9	   27.4523	   26.5714	    5.7311	    0.0000	
 -910.0000	-4.1640E-9	-4.1640E-9	-4.1640E-9	-4.1640E-9	-4.1640E-9	   27.4523	   26.5714	    5.7311	    0.0000	
 -920.0000	-4.1790E-9	-4.1790E-9	-4.1790E-9	-4.1790E-9	-4.1790E-9	   27.4523	   26.5714	    5.7311	    0.0000	
 -930.0000	-4.1980E-9	-4.1980E-9	-4.1980E-9	-4.1980E-9	-4.1980E-9	   27.4523	   26.5714	    5.7311	    0.0000	
 -940.0000	-4.2120E-9	-4.2120E-9	-4.2120E-9	-4.2120E-9	-4.2120E-9	   27.4523	   26.5714	    5.7311	    0.0000	
 -950.0000	-4.2280E-9	-4.2280E-9	-4.2280E-9	-4.2280E-9	-4.2280E-9	   27.4523	   26.5714	    5.7311	    0.0000	
 -960.0000	-4.2490E-9	-4.2490E-9	-4.2490E-9	-4.2490E-9	-4.2490E-9	   27.4523	   26.5714	    5.7311	    0.0000	
 -970.0000	-4.2740E-9	-4.2740E-9	-4.2740E-9	-4.2740E-9	-4.2740E-9	   27.4523	   26.5714	    5.7311	    0.0000	
 -980.0000	-4.2900E-9	-4.2900E-9	-4.2900E-9	-4.2900E-9	-4.2900E-9	   27.4523	   26.5714	    5.7311	    0.0000	
 -990.0000	-4.3170E-9	-4.3170E-9	-4.3170E-9	-4.3170E-9	-4.3170E-9	   27.4523	   26.5714	    5.7311	    0.0000	
-1000.0000	-4.3430E-9	-4.3430E-9	-4.3430E-9	-4.3430E-9	-4.3430E-9	   27.4523	   26.5714	    5.7311	    0.0000	
